%OpenBCI Raw EXG Data
%Number of channels = 8
%Sample Rate = 250 Hz
%Board = OpenBCI_GUI$BoardCytonSerial
Sample Index, EXG Channel 0, EXG Channel 1, EXG Channel 2, EXG Channel 3, EXG Channel 4, EXG Channel 5, EXG Channel 6, EXG Channel 7, Accel Channel 0, Accel Channel 1, Accel Channel 2, Other, Other, Other, Other, Other, Other, Other, Analog Channel 0, Analog Channel 1, Analog Channel 2, Timestamp, Other, Timestamp (Formatted)
0.0, 0.0, 0.0, 0.0, 0.0, 0.0, 0.0, 0.0, 0.0, 0.0, 0.0, 0.0, 192.0, 0.0, 0.0, 0.0, 0.0, 0.0, 0.0, 0.0, 0.0, 0.0, 1.740935695324308E9, 0.0, 2025-03-02 19:14:55.324
1.0, 3775.6119699015585, 0.0, 0.0, 0.0, 0.0, 0.0, 0.0, 0.0, 0.074, 0.036000000000000004, 0.986, 192.0, 2.0, 80.0, 1.0, 32.0, 30.0, 208.0, 0.0, 0.0, 0.0, 1.740935695387747E9, 0.0, 2025-03-02 19:14:55.387
2.0, 3805.205679560385, 0.0, 0.0, 0.0, 0.0, 0.0, 0.0, 0.0, 0.074, 0.036000000000000004, 0.986, 192.0, 0.0, 0.0, 0.0, 0.0, 0.0, 0.0, 0.0, 0.0, 0.0, 1.740935695387828E9, 0.0, 2025-03-02 19:14:55.387
3.0, 3834.2182438633736, 0.0, 0.0, 0.0, 0.0, 0.0, 0.0, 0.0, 0.074, 0.036000000000000004, 0.986, 192.0, 0.0, 0.0, 0.0, 0.0, 0.0, 0.0, 0.0, 0.0, 0.0, 1.740935695387976E9, 0.0, 2025-03-02 19:14:55.387
4.0, 3795.9297056114324, 0.0, 0.0, 0.0, 0.0, 0.0, 0.0, 0.0, 0.074, 0.036000000000000004, 0.986, 192.0, 0.0, 0.0, 0.0, 0.0, 0.0, 0.0, 0.0, 0.0, 0.0, 1.74093569538802E9, 0.0, 2025-03-02 19:14:55.388
5.0, 3771.7674698552455, 0.0, 0.0, 0.0, 0.0, 0.0, 0.0, 0.0, 0.074, 0.036000000000000004, 0.986, 192.0, 0.0, 0.0, 0.0, 0.0, 0.0, 0.0, 0.0, 0.0, 0.0, 1.740935695388057E9, 0.0, 2025-03-02 19:14:55.388
6.0, 3773.0415192891983, 0.0, 0.0, 0.0, 0.0, 0.0, 0.0, 0.0, 0.074, 0.036000000000000004, 0.986, 192.0, 0.0, 0.0, 0.0, 0.0, 0.0, 0.0, 0.0, 0.0, 0.0, 1.740935695388098E9, 0.0, 2025-03-02 19:14:55.388
7.0, 3802.3223045256505, 0.0, 0.0, 0.0, 0.0, 0.0, 0.0, 0.0, 0.074, 0.036000000000000004, 0.986, 192.0, 0.0, 0.0, 0.0, 0.0, 0.0, 0.0, 0.0, 0.0, 0.0, 1.740935695388137E9, 0.0, 2025-03-02 19:14:55.388
8.0, 3831.3348688286387, 0.0, 0.0, 0.0, 0.0, 0.0, 0.0, 0.0, 0.07200000000000001, 0.034, 0.986, 192.0, 2.0, 64.0, 1.0, 16.0, 30.0, 208.0, 0.0, 0.0, 0.0, 1.740935695388178E9, 0.0, 2025-03-02 19:14:55.388
9.0, 3792.2193160318516, 0.0, 0.0, 0.0, 0.0, 0.0, 0.0, 0.0, 0.07200000000000001, 0.034, 0.986, 192.0, 0.0, 0.0, 0.0, 0.0, 0.0, 0.0, 0.0, 0.0, 0.0, 1.740935695388223E9, 0.0, 2025-03-02 19:14:55.388
10.0, 3770.694586121391, 0.0, 0.0, 0.0, 0.0, 0.0, 0.0, 0.0, 0.07200000000000001, 0.034, 0.986, 192.0, 0.0, 0.0, 0.0, 0.0, 0.0, 0.0, 0.0, 0.0, 0.0, 1.740935695388272E9, 0.0, 2025-03-02 19:14:55.388
11.0, 3774.0249960452315, 0.0, 0.0, 0.0, 0.0, 0.0, 0.0, 0.0, 0.07200000000000001, 0.034, 0.986, 192.0, 0.0, 0.0, 0.0, 0.0, 0.0, 0.0, 0.0, 0.0, 0.0, 1.740935695388316E9, 0.0, 2025-03-02 19:14:55.388
12.0, 3803.484595237326, 0.0, 0.0, 0.0, 0.0, 0.0, 0.0, 0.0, 0.07200000000000001, 0.034, 0.986, 192.0, 0.0, 0.0, 0.0, 0.0, 0.0, 0.0, 0.0, 0.0, 0.0, 1.740935695388364E9, 0.0, 2025-03-02 19:14:55.388
13.0, 3832.810083962689, 0.0, 0.0, 0.0, 0.0, 0.0, 0.0, 0.0, 0.07200000000000001, 0.034, 0.986, 192.0, 0.0, 0.0, 0.0, 0.0, 0.0, 0.0, 0.0, 0.0, 0.0, 1.740935695388416E9, 0.0, 2025-03-02 19:14:55.388
14.0, 3795.102691066586, 0.0, 0.0, 0.0, 0.0, 0.0, 0.0, 0.0, 0.07200000000000001, 0.034, 0.986, 192.0, 0.0, 0.0, 0.0, 0.0, 0.0, 0.0, 0.0, 0.0, 0.0, 1.74093569538847E9, 0.0, 2025-03-02 19:14:55.388
15.0, 3768.973501798332, 0.0, 0.0, 0.0, 0.0, 0.0, 0.0, 0.0, 0.07200000000000001, 0.034, 0.986, 192.0, 0.0, 0.0, 0.0, 0.0, 0.0, 0.0, 0.0, 0.0, 0.0, 1.74093569538854E9, 0.0, 2025-03-02 19:14:55.388
16.0, 3772.169801255441, 0.0, 0.0, 0.0, 0.0, 0.0, 0.0, 0.0, 0.07200000000000001, 0.034, 0.986, 192.0, 0.0, 0.0, 0.0, 0.0, 0.0, 0.0, 0.0, 0.0, 0.0, 1.740935695448098E9, 0.0, 2025-03-02 19:14:55.448
17.0, 3799.7742056577454, 0.0, 0.0, 0.0, 0.0, 0.0, 0.0, 0.0, 0.074, 0.034, 0.982, 192.0, 2.0, 80.0, 1.0, 16.0, 30.0, 176.0, 0.0, 0.0, 0.0, 1.740935695448142E9, 0.0, 2025-03-02 19:14:55.448
18.0, 3828.272679838262, 0.0, 0.0, 0.0, 0.0, 0.0, 0.0, 0.0, 0.074, 0.034, 0.982, 192.0, 0.0, 0.0, 0.0, 0.0, 0.0, 0.0, 0.0, 0.0, 0.0, 1.740935695448237E9, 0.0, 2025-03-02 19:14:55.448
19.0, 3792.5098887097706, 0.0, 0.0, 0.0, 0.0, 0.0, 0.0, 0.0, 0.074, 0.034, 0.982, 192.0, 0.0, 0.0, 0.0, 0.0, 0.0, 0.0, 0.0, 0.0, 0.0, 1.740935695448281E9, 0.0, 2025-03-02 19:14:55.448
20.0, 3765.2184087298406, 0.0, 0.0, 0.0, 0.0, 0.0, 0.0, 0.0, 0.074, 0.034, 0.982, 192.0, 0.0, 0.0, 0.0, 0.0, 0.0, 0.0, 0.0, 0.0, 0.0, 1.740935695448325E9, 0.0, 2025-03-02 19:14:55.448
21.0, 3764.883132563011, 0.0, 0.0, 0.0, 0.0, 0.0, 0.0, 0.0, 0.074, 0.034, 0.982, 192.0, 0.0, 0.0, 0.0, 0.0, 0.0, 0.0, 0.0, 0.0, 0.0, 1.740935695448357E9, 0.0, 2025-03-02 19:14:55.448
22.0, 3796.4214439894495, 0.0, 0.0, 0.0, 0.0, 0.0, 0.0, 0.0, 0.074, 0.034, 0.982, 192.0, 0.0, 0.0, 0.0, 0.0, 0.0, 0.0, 0.0, 0.0, 0.0, 1.740935695448392E9, 0.0, 2025-03-02 19:14:55.448
23.0, 3834.70998224139, 0.0, 0.0, 0.0, 0.0, 0.0, 0.0, 0.0, 0.074, 0.034, 0.982, 192.0, 0.0, 0.0, 0.0, 0.0, 0.0, 0.0, 0.0, 0.0, 0.0, 1.740935695448433E9, 0.0, 2025-03-02 19:14:55.448
24.0, 3799.9306678689327, 0.0, 0.0, 0.0, 0.0, 0.0, 0.0, 0.0, 0.074, 0.034, 0.982, 192.0, 0.0, 0.0, 0.0, 0.0, 0.0, 0.0, 0.0, 0.0, 0.0, 1.74093569544848E9, 0.0, 2025-03-02 19:14:55.448
25.0, 3770.940455310399, 0.0, 0.0, 0.0, 0.0, 0.0, 0.0, 0.0, 0.074, 0.034, 0.982, 192.0, 0.0, 0.0, 0.0, 0.0, 0.0, 0.0, 0.0, 0.0, 0.0, 1.740935695448532E9, 0.0, 2025-03-02 19:14:55.448
26.0, 3772.4380221889046, 0.0, 0.0, 0.0, 0.0, 0.0, 0.0, 0.0, 0.074, 0.034, 0.982, 192.0, 0.0, 0.0, 0.0, 0.0, 0.0, 0.0, 0.0, 0.0, 0.0, 1.740935695448556E9, 0.0, 2025-03-02 19:14:55.448
27.0, 3805.2503830492956, 0.0, 0.0, 0.0, 0.0, 0.0, 0.0, 0.0, 0.074, 0.032, 0.986, 192.0, 2.0, 80.0, 1.0, 0.0, 30.0, 208.0, 0.0, 0.0, 0.0, 1.740935695448579E9, 0.0, 2025-03-02 19:14:55.448
28.0, 3837.4368950649377, 0.0, 0.0, 0.0, 0.0, 0.0, 0.0, 0.0, 0.074, 0.032, 0.986, 192.0, 0.0, 0.0, 0.0, 0.0, 0.0, 0.0, 0.0, 0.0, 0.0, 1.740935695448603E9, 0.0, 2025-03-02 19:14:55.448
29.0, 3800.556516713681, 0.0, 0.0, 0.0, 0.0, 0.0, 0.0, 0.0, 0.074, 0.032, 0.986, 192.0, 0.0, 0.0, 0.0, 0.0, 0.0, 0.0, 0.0, 0.0, 0.0, 1.740935695448626E9, 0.0, 2025-03-02 19:14:55.448
30.0, 3775.3213972236395, 0.0, 0.0, 0.0, 0.0, 0.0, 0.0, 0.0, 0.074, 0.032, 0.986, 192.0, 0.0, 0.0, 0.0, 0.0, 0.0, 0.0, 0.0, 0.0, 0.0, 1.740935695448649E9, 0.0, 2025-03-02 19:14:55.448
31.0, 3777.2659989912513, 0.0, 0.0, 0.0, 0.0, 0.0, 0.0, 0.0, 0.074, 0.032, 0.986, 192.0, 0.0, 0.0, 0.0, 0.0, 0.0, 0.0, 0.0, 0.0, 0.0, 1.74093569550833E9, 0.0, 2025-03-02 19:14:55.508
32.0, 3807.686723194924, 0.0, 0.0, 0.0, 0.0, 0.0, 0.0, 0.0, 0.074, 0.032, 0.986, 192.0, 0.0, 0.0, 0.0, 0.0, 0.0, 0.0, 0.0, 0.0, 0.0, 1.740935695508379E9, 0.0, 2025-03-02 19:14:55.508
33.0, 3842.555444545203, 0.0, 0.0, 0.0, 0.0, 0.0, 0.0, 0.0, 0.074, 0.032, 0.986, 192.0, 0.0, 0.0, 0.0, 0.0, 0.0, 0.0, 0.0, 0.0, 0.0, 1.740935695508404E9, 0.0, 2025-03-02 19:14:55.508
34.0, 3805.8985836384995, 0.0, 0.0, 0.0, 0.0, 0.0, 0.0, 0.0, 0.074, 0.032, 0.986, 192.0, 0.0, 0.0, 0.0, 0.0, 0.0, 0.0, 0.0, 0.0, 0.0, 1.740935695508429E9, 0.0, 2025-03-02 19:14:55.508
35.0, 3776.79661235769, 0.0, 0.0, 0.0, 0.0, 0.0, 0.0, 0.0, 0.074, 0.032, 0.986, 192.0, 0.0, 0.0, 0.0, 0.0, 0.0, 0.0, 0.0, 0.0, 0.0, 1.740935695508452E9, 0.0, 2025-03-02 19:14:55.508
36.0, 3776.9754263133323, 0.0, 0.0, 0.0, 0.0, 0.0, 0.0, 0.0, 0.074, 0.032, 0.986, 192.0, 0.0, 0.0, 0.0, 0.0, 0.0, 0.0, 0.0, 0.0, 0.0, 1.740935695508575E9, 0.0, 2025-03-02 19:14:55.508
37.0, 3808.021999361754, 0.0, 0.0, 0.0, 0.0, 0.0, 0.0, 0.0, 0.078, 0.028, 0.986, 192.0, 2.0, 112.0, 0.0, 224.0, 30.0, 208.0, 0.0, 0.0, 0.0, 1.740935695508615E9, 0.0, 2025-03-02 19:14:55.508
38.0, 3844.6788602684574, 0.0, 0.0, 0.0, 0.0, 0.0, 0.0, 0.0, 0.078, 0.028, 0.986, 192.0, 0.0, 0.0, 0.0, 0.0, 0.0, 0.0, 0.0, 0.0, 0.0, 1.740935695508659E9, 0.0, 2025-03-02 19:14:55.508
39.0, 3807.820833661656, 0.0, 0.0, 0.0, 0.0, 0.0, 0.0, 0.0, 0.078, 0.028, 0.986, 192.0, 0.0, 0.0, 0.0, 0.0, 0.0, 0.0, 0.0, 0.0, 0.0, 1.740935695508691E9, 0.0, 2025-03-02 19:14:55.508
40.0, 3778.98708331431, 0.0, 0.0, 0.0, 0.0, 0.0, 0.0, 0.0, 0.078, 0.028, 0.986, 192.0, 0.0, 0.0, 0.0, 0.0, 0.0, 0.0, 0.0, 0.0, 0.0, 1.740935695508734E9, 0.0, 2025-03-02 19:14:55.508
41.0, 3779.948208325888, 0.0, 0.0, 0.0, 0.0, 0.0, 0.0, 0.0, 0.078, 0.028, 0.986, 192.0, 0.0, 0.0, 0.0, 0.0, 0.0, 0.0, 0.0, 0.0, 0.0, 1.740935695508758E9, 0.0, 2025-03-02 19:14:55.508
42.0, 3809.139586584519, 0.0, 0.0, 0.0, 0.0, 0.0, 0.0, 0.0, 0.078, 0.028, 0.986, 192.0, 0.0, 0.0, 0.0, 0.0, 0.0, 0.0, 0.0, 0.0, 0.0, 1.74093569550878E9, 0.0, 2025-03-02 19:14:55.508
43.0, 3840.4767323108595, 0.0, 0.0, 0.0, 0.0, 0.0, 0.0, 0.0, 0.078, 0.028, 0.986, 192.0, 0.0, 0.0, 0.0, 0.0, 0.0, 0.0, 0.0, 0.0, 0.0, 1.740935695508804E9, 0.0, 2025-03-02 19:14:55.508
44.0, 3804.333961526628, 0.0, 0.0, 0.0, 0.0, 0.0, 0.0, 0.0, 0.078, 0.028, 0.986, 192.0, 0.0, 0.0, 0.0, 0.0, 0.0, 0.0, 0.0, 0.0, 0.0, 1.740935695508826E9, 0.0, 2025-03-02 19:14:55.508
45.0, 3781.602237415581, 0.0, 0.0, 0.0, 0.0, 0.0, 0.0, 0.0, 0.078, 0.028, 0.986, 192.0, 0.0, 0.0, 0.0, 0.0, 0.0, 0.0, 0.0, 0.0, 0.0, 1.740935695508849E9, 0.0, 2025-03-02 19:14:55.508
46.0, 3779.791746114701, 0.0, 0.0, 0.0, 0.0, 0.0, 0.0, 0.0, 0.078, 0.028, 0.986, 192.0, 0.0, 0.0, 0.0, 0.0, 0.0, 0.0, 0.0, 0.0, 0.0, 1.740935695568627E9, 0.0, 2025-03-02 19:14:55.568
47.0, 3804.7362929268234, 0.0, 0.0, 0.0, 0.0, 0.0, 0.0, 0.0, 0.08, 0.026000000000000002, 0.988, 192.0, 2.0, 128.0, 0.0, 208.0, 30.0, 224.0, 0.0, 0.0, 0.0, 1.740935695568693E9, 0.0, 2025-03-02 19:14:55.568
48.0, 3841.460209066893, 0.0, 0.0, 0.0, 0.0, 0.0, 0.0, 0.0, 0.08, 0.026000000000000002, 0.988, 192.0, 0.0, 0.0, 0.0, 0.0, 0.0, 0.0, 0.0, 0.0, 0.0, 1.74093569556874E9, 0.0, 2025-03-02 19:14:55.568
49.0, 3806.5691359721586, 0.0, 0.0, 0.0, 0.0, 0.0, 0.0, 0.0, 0.08, 0.026000000000000002, 0.988, 192.0, 0.0, 0.0, 0.0, 0.0, 0.0, 0.0, 0.0, 0.0, 0.0, 1.740935695568784E9, 0.0, 2025-03-02 19:14:55.568
50.0, 3778.4729931918378, 0.0, 0.0, 0.0, 0.0, 0.0, 0.0, 0.0, 0.08, 0.026000000000000002, 0.988, 192.0, 0.0, 0.0, 0.0, 0.0, 0.0, 0.0, 0.0, 0.0, 0.0, 1.740935695568828E9, 0.0, 2025-03-02 19:14:55.568
51.0, 3780.4175949594496, 0.0, 0.0, 0.0, 0.0, 0.0, 0.0, 0.0, 0.08, 0.026000000000000002, 0.988, 192.0, 0.0, 0.0, 0.0, 0.0, 0.0, 0.0, 0.0, 0.0, 0.0, 1.740935695568881E9, 0.0, 2025-03-02 19:14:55.568
52.0, 3810.9947813743097, 0.0, 0.0, 0.0, 0.0, 0.0, 0.0, 0.0, 0.08, 0.026000000000000002, 0.988, 192.0, 0.0, 0.0, 0.0, 0.0, 0.0, 0.0, 0.0, 0.0, 0.0, 1.740935695568935E9, 0.0, 2025-03-02 19:14:55.568
53.0, 3843.4718660678705, 0.0, 0.0, 0.0, 0.0, 0.0, 0.0, 0.0, 0.08, 0.026000000000000002, 0.988, 192.0, 0.0, 0.0, 0.0, 0.0, 0.0, 0.0, 0.0, 0.0, 0.0, 1.740935695568982E9, 0.0, 2025-03-02 19:14:55.568
54.0, 3809.653676706991, 0.0, 0.0, 0.0, 0.0, 0.0, 0.0, 0.0, 0.08, 0.026000000000000002, 0.988, 192.0, 0.0, 0.0, 0.0, 0.0, 0.0, 0.0, 0.0, 0.0, 0.0, 1.740935695569186E9, 0.0, 2025-03-02 19:14:55.569
55.0, 3774.829658845623, 0.0, 0.0, 0.0, 0.0, 0.0, 0.0, 0.0, 0.08, 0.026000000000000002, 0.988, 192.0, 0.0, 0.0, 0.0, 0.0, 0.0, 0.0, 0.0, 0.0, 0.0, 1.740935695569233E9, 0.0, 2025-03-02 19:14:55.569
56.0, 3776.3495774685834, 0.0, 0.0, 0.0, 0.0, 0.0, 0.0, 0.0, 0.08, 0.026000000000000002, 0.988, 192.0, 0.0, 0.0, 0.0, 0.0, 0.0, 0.0, 0.0, 0.0, 0.0, 1.740935695569335E9, 0.0, 2025-03-02 19:14:55.569
57.0, 3814.4145982759715, 0.0, 0.0, 0.0, 0.0, 0.0, 0.0, 0.0, 0.078, 0.03, 0.982, 192.0, 2.0, 112.0, 0.0, 240.0, 30.0, 176.0, 0.0, 0.0, 0.0, 1.740935695569381E9, 0.0, 2025-03-02 19:14:55.569
58.0, 3851.943177216432, 0.0, 0.0, 0.0, 0.0, 0.0, 0.0, 0.0, 0.078, 0.03, 0.982, 192.0, 0.0, 0.0, 0.0, 0.0, 0.0, 0.0, 0.0, 0.0, 0.0, 1.740935695569427E9, 0.0, 2025-03-02 19:14:55.569
59.0, 3813.297011053206, 0.0, 0.0, 0.0, 0.0, 0.0, 0.0, 0.0, 0.078, 0.03, 0.982, 192.0, 0.0, 0.0, 0.0, 0.0, 0.0, 0.0, 0.0, 0.0, 0.0, 1.74093569556947E9, 0.0, 2025-03-02 19:14:55.569
60.0, 3781.713996137857, 0.0, 0.0, 0.0, 0.0, 0.0, 0.0, 0.0, 0.078, 0.03, 0.982, 192.0, 0.0, 0.0, 0.0, 0.0, 0.0, 0.0, 0.0, 0.0, 0.0, 1.740935695569513E9, 0.0, 2025-03-02 19:14:55.569
61.0, 3779.74704262579, 0.0, 0.0, 0.0, 0.0, 0.0, 0.0, 0.0, 0.078, 0.03, 0.982, 192.0, 0.0, 0.0, 0.0, 0.0, 0.0, 0.0, 0.0, 0.0, 0.0, 1.740935695628875E9, 0.0, 2025-03-02 19:14:55.628
62.0, 3805.5856592161254, 0.0, 0.0, 0.0, 0.0, 0.0, 0.0, 0.0, 0.078, 0.03, 0.982, 192.0, 0.0, 0.0, 0.0, 0.0, 0.0, 0.0, 0.0, 0.0, 0.0, 1.740935695628923E9, 0.0, 2025-03-02 19:14:55.628
63.0, 3846.3552411026053, 0.0, 0.0, 0.0, 0.0, 0.0, 0.0, 0.0, 0.078, 0.03, 0.982, 192.0, 0.0, 0.0, 0.0, 0.0, 0.0, 0.0, 0.0, 0.0, 0.0, 1.740935695628948E9, 0.0, 2025-03-02 19:14:55.628
64.0, 3813.22995581984, 0.0, 0.0, 0.0, 0.0, 0.0, 0.0, 0.0, 0.078, 0.03, 0.982, 192.0, 0.0, 0.0, 0.0, 0.0, 0.0, 0.0, 0.0, 0.0, 0.0, 1.740935695628971E9, 0.0, 2025-03-02 19:14:55.628
65.0, 3781.8257548601337, 0.0, 0.0, 0.0, 0.0, 0.0, 0.0, 0.0, 0.078, 0.03, 0.982, 192.0, 0.0, 0.0, 0.0, 0.0, 0.0, 0.0, 0.0, 0.0, 0.0, 1.740935695628994E9, 0.0, 2025-03-02 19:14:55.628
66.0, 3781.7810513712234, 0.0, 0.0, 0.0, 0.0, 0.0, 0.0, 0.0, 0.076, 0.03, 0.984, 192.0, 2.0, 96.0, 0.0, 240.0, 30.0, 192.0, 0.0, 0.0, 0.0, 1.740935695629017E9, 0.0, 2025-03-02 19:14:55.629
67.0, 3809.8101389181784, 0.0, 0.0, 0.0, 0.0, 0.0, 0.0, 0.0, 0.076, 0.03, 0.984, 192.0, 0.0, 0.0, 0.0, 0.0, 0.0, 0.0, 0.0, 0.0, 0.0, 1.740935695629041E9, 0.0, 2025-03-02 19:14:55.629
68.0, 3842.555444545203, 0.0, 0.0, 0.0, 0.0, 0.0, 0.0, 0.0, 0.076, 0.03, 0.984, 192.0, 0.0, 0.0, 0.0, 0.0, 0.0, 0.0, 0.0, 0.0, 0.0, 1.740935695629064E9, 0.0, 2025-03-02 19:14:55.629
69.0, 3808.1561098284856, 0.0, 0.0, 0.0, 0.0, 0.0, 0.0, 0.0, 0.076, 0.03, 0.984, 192.0, 0.0, 0.0, 0.0, 0.0, 0.0, 0.0, 0.0, 0.0, 0.0, 1.740935695629097E9, 0.0, 2025-03-02 19:14:55.629
70.0, 3780.0599670481647, 0.0, 0.0, 0.0, 0.0, 0.0, 0.0, 0.0, 0.076, 0.03, 0.984, 192.0, 0.0, 0.0, 0.0, 0.0, 0.0, 0.0, 0.0, 0.0, 0.0, 1.740935695629143E9, 0.0, 2025-03-02 19:14:55.629
71.0, 3782.98804557181, 0.0, 0.0, 0.0, 0.0, 0.0, 0.0, 0.0, 0.076, 0.03, 0.984, 192.0, 0.0, 0.0, 0.0, 0.0, 0.0, 0.0, 0.0, 0.0, 0.0, 1.740935695629249E9, 0.0, 2025-03-02 19:14:55.629
72.0, 3810.0560081071867, 0.0, 0.0, 0.0, 0.0, 0.0, 0.0, 0.0, 0.076, 0.03, 0.984, 192.0, 0.0, 0.0, 0.0, 0.0, 0.0, 0.0, 0.0, 0.0, 0.0, 1.740935695629284E9, 0.0, 2025-03-02 19:14:55.629
73.0, 3845.796447491223, 0.0, 0.0, 0.0, 0.0, 0.0, 0.0, 0.0, 0.076, 0.03, 0.984, 192.0, 0.0, 0.0, 0.0, 0.0, 0.0, 0.0, 0.0, 0.0, 0.0, 1.740935695629316E9, 0.0, 2025-03-02 19:14:55.629
74.0, 3810.1007115960974, 0.0, 0.0, 0.0, 0.0, 0.0, 0.0, 0.0, 0.076, 0.03, 0.984, 192.0, 0.0, 0.0, 0.0, 0.0, 0.0, 0.0, 0.0, 0.0, 0.0, 1.740935695629349E9, 0.0, 2025-03-02 19:14:55.629
75.0, 3776.0366530462093, 0.0, 0.0, 0.0, 0.0, 0.0, 0.0, 0.0, 0.076, 0.03, 0.984, 192.0, 0.0, 0.0, 0.0, 0.0, 0.0, 0.0, 0.0, 0.0, 0.0, 1.740935695629386E9, 0.0, 2025-03-02 19:14:55.629
76.0, 3776.9754263133323, 0.0, 0.0, 0.0, 0.0, 0.0, 0.0, 0.0, 0.074, 0.03, 0.984, 192.0, 2.0, 80.0, 0.0, 240.0, 30.0, 192.0, 0.0, 0.0, 0.0, 1.740935695687837E9, 0.0, 2025-03-02 19:14:55.687
77.0, 3804.4457202489043, 0.0, 0.0, 0.0, 0.0, 0.0, 0.0, 0.0, 0.074, 0.03, 0.984, 192.0, 0.0, 0.0, 0.0, 0.0, 0.0, 0.0, 0.0, 0.0, 0.0, 1.74093569568791E9, 0.0, 2025-03-02 19:14:55.687
78.0, 3842.3989823340157, 0.0, 0.0, 0.0, 0.0, 0.0, 0.0, 0.0, 0.074, 0.03, 0.984, 192.0, 0.0, 0.0, 0.0, 0.0, 0.0, 0.0, 0.0, 0.0, 0.0, 1.740935695687937E9, 0.0, 2025-03-02 19:14:55.687
79.0, 3807.03852260572, 0.0, 0.0, 0.0, 0.0, 0.0, 0.0, 0.0, 0.074, 0.03, 0.984, 192.0, 0.0, 0.0, 0.0, 0.0, 0.0, 0.0, 0.0, 0.0, 0.0, 1.740935695687961E9, 0.0, 2025-03-02 19:14:55.687
80.0, 3776.170763512941, 0.0, 0.0, 0.0, 0.0, 0.0, 0.0, 0.0, 0.074, 0.03, 0.984, 192.0, 0.0, 0.0, 0.0, 0.0, 0.0, 0.0, 0.0, 0.0, 0.0, 1.740935695688006E9, 0.0, 2025-03-02 19:14:55.688
81.0, 3777.2883507357064, 0.0, 0.0, 0.0, 0.0, 0.0, 0.0, 0.0, 0.074, 0.03, 0.984, 192.0, 0.0, 0.0, 0.0, 0.0, 0.0, 0.0, 0.0, 0.0, 0.0, 1.740935695688054E9, 0.0, 2025-03-02 19:14:55.688
82.0, 3804.557478971181, 0.0, 0.0, 0.0, 0.0, 0.0, 0.0, 0.0, 0.074, 0.03, 0.984, 192.0, 0.0, 0.0, 0.0, 0.0, 0.0, 0.0, 0.0, 0.0, 0.0, 1.740935695688097E9, 0.0, 2025-03-02 19:14:55.688
83.0, 3841.23669162234, 0.0, 0.0, 0.0, 0.0, 0.0, 0.0, 0.0, 0.074, 0.03, 0.984, 192.0, 0.0, 0.0, 0.0, 0.0, 0.0, 0.0, 0.0, 0.0, 0.0, 1.740935695688144E9, 0.0, 2025-03-02 19:14:55.688
84.0, 3808.2455168063066, 0.0, 0.0, 0.0, 0.0, 0.0, 0.0, 0.0, 0.074, 0.03, 0.984, 192.0, 0.0, 0.0, 0.0, 0.0, 0.0, 0.0, 0.0, 0.0, 0.0, 1.740935695688189E9, 0.0, 2025-03-02 19:14:55.688
85.0, 3776.438984446405, 0.0, 0.0, 0.0, 0.0, 0.0, 0.0, 0.0, 0.074, 0.03, 0.984, 192.0, 0.0, 0.0, 0.0, 0.0, 0.0, 0.0, 0.0, 0.0, 0.0, 1.740935695688223E9, 0.0, 2025-03-02 19:14:55.688
86.0, 3778.1824205139187, 0.0, 0.0, 0.0, 0.0, 0.0, 0.0, 0.0, 0.076, 0.026000000000000002, 0.984, 192.0, 2.0, 96.0, 0.0, 208.0, 30.0, 192.0, 0.0, 0.0, 0.0, 1.740935695688258E9, 0.0, 2025-03-02 19:14:55.688
87.0, 3808.714903439868, 0.0, 0.0, 0.0, 0.0, 0.0, 0.0, 0.0, 0.076, 0.026000000000000002, 0.984, 192.0, 0.0, 0.0, 0.0, 0.0, 0.0, 0.0, 0.0, 0.0, 0.0, 1.740935695688297E9, 0.0, 2025-03-02 19:14:55.688
88.0, 3844.6118050350915, 0.0, 0.0, 0.0, 0.0, 0.0, 0.0, 0.0, 0.076, 0.026000000000000002, 0.984, 192.0, 0.0, 0.0, 0.0, 0.0, 0.0, 0.0, 0.0, 0.0, 0.0, 1.740935695688345E9, 0.0, 2025-03-02 19:14:55.688
89.0, 3809.2066418178847, 0.0, 0.0, 0.0, 0.0, 0.0, 0.0, 0.0, 0.076, 0.026000000000000002, 0.984, 192.0, 0.0, 0.0, 0.0, 0.0, 0.0, 0.0, 0.0, 0.0, 0.0, 1.740935695688449E9, 0.0, 2025-03-02 19:14:55.688
90.0, 3778.65180714748, 0.0, 0.0, 0.0, 0.0, 0.0, 0.0, 0.0, 0.076, 0.026000000000000002, 0.984, 192.0, 0.0, 0.0, 0.0, 0.0, 0.0, 0.0, 0.0, 0.0, 0.0, 1.740935695688487E9, 0.0, 2025-03-02 19:14:55.688
91.0, 3780.372891470539, 0.0, 0.0, 0.0, 0.0, 0.0, 0.0, 0.0, 0.076, 0.026000000000000002, 0.984, 192.0, 0.0, 0.0, 0.0, 0.0, 0.0, 0.0, 0.0, 0.0, 0.0, 1.74093569574807E9, 0.0, 2025-03-02 19:14:55.748
92.0, 3808.1561098284856, 0.0, 0.0, 0.0, 0.0, 0.0, 0.0, 0.0, 0.076, 0.026000000000000002, 0.984, 192.0, 0.0, 0.0, 0.0, 0.0, 0.0, 0.0, 0.0, 0.0, 0.0, 1.740935695748118E9, 0.0, 2025-03-02 19:14:55.748
93.0, 3845.1258951575633, 0.0, 0.0, 0.0, 0.0, 0.0, 0.0, 0.0, 0.076, 0.026000000000000002, 0.984, 192.0, 0.0, 0.0, 0.0, 0.0, 0.0, 0.0, 0.0, 0.0, 0.0, 1.740935695748143E9, 0.0, 2025-03-02 19:14:55.748
94.0, 3812.246479063807, 0.0, 0.0, 0.0, 0.0, 0.0, 0.0, 0.0, 0.076, 0.026000000000000002, 0.984, 192.0, 0.0, 0.0, 0.0, 0.0, 0.0, 0.0, 0.0, 0.0, 0.0, 1.740935695748167E9, 0.0, 2025-03-02 19:14:55.748
95.0, 3782.496307193793, 0.0, 0.0, 0.0, 0.0, 0.0, 0.0, 0.0, 0.076, 0.026000000000000002, 0.984, 192.0, 0.0, 0.0, 0.0, 0.0, 0.0, 0.0, 0.0, 0.0, 0.0, 1.740935695748189E9, 0.0, 2025-03-02 19:14:55.748
96.0, 3778.5176966807485, 0.0, 0.0, 0.0, 0.0, 0.0, 0.0, 0.0, 0.076, 0.03, 0.984, 192.0, 2.0, 96.0, 0.0, 240.0, 30.0, 192.0, 0.0, 0.0, 0.0, 1.740935695748212E9, 0.0, 2025-03-02 19:14:55.748
97.0, 3806.055045849687, 0.0, 0.0, 0.0, 0.0, 0.0, 0.0, 0.0, 0.076, 0.03, 0.984, 192.0, 0.0, 0.0, 0.0, 0.0, 0.0, 0.0, 0.0, 0.0, 0.0, 1.740935695748236E9, 0.0, 2025-03-02 19:14:55.748
98.0, 3841.169636388974, 0.0, 0.0, 0.0, 0.0, 0.0, 0.0, 0.0, 0.076, 0.03, 0.984, 192.0, 0.0, 0.0, 0.0, 0.0, 0.0, 0.0, 0.0, 0.0, 0.0, 1.740935695748274E9, 0.0, 2025-03-02 19:14:55.748
99.0, 3805.853880149589, 0.0, 0.0, 0.0, 0.0, 0.0, 0.0, 0.0, 0.076, 0.03, 0.984, 192.0, 0.0, 0.0, 0.0, 0.0, 0.0, 0.0, 0.0, 0.0, 0.0, 1.740935695748312E9, 0.0, 2025-03-02 19:14:55.748
100.0, 3773.1309262670193, 0.0, 0.0, 0.0, 0.0, 0.0, 0.0, 0.0, 0.076, 0.03, 0.984, 192.0, 0.0, 0.0, 0.0, 0.0, 0.0, 0.0, 0.0, 0.0, 0.0, 1.74093569574836E9, 0.0, 2025-03-02 19:14:55.748
101.0, 3772.46037393336, 0.0, 0.0, 0.0, 0.0, 0.0, 0.0, 0.0, 0.076, 0.03, 0.984, 192.0, 0.0, 0.0, 0.0, 0.0, 0.0, 0.0, 0.0, 0.0, 0.0, 1.740935695748406E9, 0.0, 2025-03-02 19:14:55.748
102.0, 3798.0531213346867, 0.0, 0.0, 0.0, 0.0, 0.0, 0.0, 0.0, 0.076, 0.03, 0.984, 192.0, 0.0, 0.0, 0.0, 0.0, 0.0, 0.0, 0.0, 0.0, 0.0, 1.740935695748442E9, 0.0, 2025-03-02 19:14:55.748
103.0, 3834.128836885552, 0.0, 0.0, 0.0, 0.0, 0.0, 0.0, 0.0, 0.076, 0.03, 0.984, 192.0, 0.0, 0.0, 0.0, 0.0, 0.0, 0.0, 0.0, 0.0, 0.0, 1.740935695748484E9, 0.0, 2025-03-02 19:14:55.748
104.0, 3801.7635109142675, 0.0, 0.0, 0.0, 0.0, 0.0, 0.0, 0.0, 0.076, 0.03, 0.984, 192.0, 0.0, 0.0, 0.0, 0.0, 0.0, 0.0, 0.0, 0.0, 0.0, 1.740935695748554E9, 0.0, 2025-03-02 19:14:55.748
105.0, 3770.7169378658464, 0.0, 0.0, 0.0, 0.0, 0.0, 0.0, 0.0, 0.076, 0.03, 0.984, 192.0, 0.0, 0.0, 0.0, 0.0, 0.0, 0.0, 0.0, 0.0, 0.0, 1.740935695748601E9, 0.0, 2025-03-02 19:14:55.748
106.0, 3771.923932066433, 0.0, 0.0, 0.0, 0.0, 0.0, 0.0, 0.0, 0.082, 0.032, 0.98, 192.0, 2.0, 144.0, 1.0, 0.0, 30.0, 160.0, 0.0, 0.0, 0.0, 1.740935695808374E9, 0.0, 2025-03-02 19:14:55.808
107.0, 3798.4107492459716, 0.0, 0.0, 0.0, 0.0, 0.0, 0.0, 0.0, 0.082, 0.032, 0.98, 192.0, 0.0, 0.0, 0.0, 0.0, 0.0, 0.0, 0.0, 0.0, 0.0, 1.74093569580847E9, 0.0, 2025-03-02 19:14:55.808
108.0, 3834.777037474756, 0.0, 0.0, 0.0, 0.0, 0.0, 0.0, 0.0, 0.082, 0.032, 0.98, 192.0, 0.0, 0.0, 0.0, 0.0, 0.0, 0.0, 0.0, 0.0, 0.0, 1.740935695808497E9, 0.0, 2025-03-02 19:14:55.808
109.0, 3801.1153103250635, 0.0, 0.0, 0.0, 0.0, 0.0, 0.0, 0.0, 0.082, 0.032, 0.98, 192.0, 0.0, 0.0, 0.0, 0.0, 0.0, 0.0, 0.0, 0.0, 0.0, 1.740935695808549E9, 0.0, 2025-03-02 19:14:55.808
110.0, 3771.1639727549523, 0.0, 0.0, 0.0, 0.0, 0.0, 0.0, 0.0, 0.082, 0.032, 0.98, 192.0, 0.0, 0.0, 0.0, 0.0, 0.0, 0.0, 0.0, 0.0, 0.0, 1.740935695808575E9, 0.0, 2025-03-02 19:14:55.808
111.0, 3775.1872867569077, 0.0, 0.0, 0.0, 0.0, 0.0, 0.0, 0.0, 0.082, 0.032, 0.98, 192.0, 0.0, 0.0, 0.0, 0.0, 0.0, 0.0, 0.0, 0.0, 0.0, 1.740935695808599E9, 0.0, 2025-03-02 19:14:55.808
112.0, 3797.1814033009296, 0.0, 0.0, 0.0, 0.0, 0.0, 0.0, 0.0, 0.082, 0.032, 0.98, 192.0, 0.0, 0.0, 0.0, 0.0, 0.0, 0.0, 0.0, 0.0, 0.0, 1.740935695808624E9, 0.0, 2025-03-02 19:14:55.808
113.0, 3832.497159540315, 0.0, 0.0, 0.0, 0.0, 0.0, 0.0, 0.0, 0.082, 0.032, 0.98, 192.0, 0.0, 0.0, 0.0, 0.0, 0.0, 0.0, 0.0, 0.0, 0.0, 1.740935695808648E9, 0.0, 2025-03-02 19:14:55.808
114.0, 3803.238726048318, 0.0, 0.0, 0.0, 0.0, 0.0, 0.0, 0.0, 0.082, 0.032, 0.98, 192.0, 0.0, 0.0, 0.0, 0.0, 0.0, 0.0, 0.0, 0.0, 0.0, 1.740935695808672E9, 0.0, 2025-03-02 19:14:55.808
115.0, 3773.108574522564, 0.0, 0.0, 0.0, 0.0, 0.0, 0.0, 0.0, 0.082, 0.03, 0.986, 192.0, 2.0, 144.0, 0.0, 240.0, 30.0, 208.0, 0.0, 0.0, 0.0, 1.740935695808696E9, 0.0, 2025-03-02 19:14:55.808
116.0, 3771.9686355553436, 0.0, 0.0, 0.0, 0.0, 0.0, 0.0, 0.0, 0.082, 0.03, 0.986, 192.0, 0.0, 0.0, 0.0, 0.0, 0.0, 0.0, 0.0, 0.0, 0.0, 1.740935695808722E9, 0.0, 2025-03-02 19:14:55.808
117.0, 3794.4991939662928, 0.0, 0.0, 0.0, 0.0, 0.0, 0.0, 0.0, 0.082, 0.03, 0.986, 192.0, 0.0, 0.0, 0.0, 0.0, 0.0, 0.0, 0.0, 0.0, 0.0, 1.740935695808746E9, 0.0, 2025-03-02 19:14:55.808
118.0, 3830.2172816058737, 0.0, 0.0, 0.0, 0.0, 0.0, 0.0, 0.0, 0.082, 0.03, 0.986, 192.0, 0.0, 0.0, 0.0, 0.0, 0.0, 0.0, 0.0, 0.0, 0.0, 1.740935695808771E9, 0.0, 2025-03-02 19:14:55.808
119.0, 3798.634266690525, 0.0, 0.0, 0.0, 0.0, 0.0, 0.0, 0.0, 0.082, 0.03, 0.986, 192.0, 0.0, 0.0, 0.0, 0.0, 0.0, 0.0, 0.0, 0.0, 0.0, 1.740935695808807E9, 0.0, 2025-03-02 19:14:55.808
120.0, 3769.8675715765444, 0.0, 0.0, 0.0, 0.0, 0.0, 0.0, 0.0, 0.082, 0.03, 0.986, 192.0, 0.0, 0.0, 0.0, 0.0, 0.0, 0.0, 0.0, 0.0, 0.0, 1.740935695808857E9, 0.0, 2025-03-02 19:14:55.808
121.0, 3771.655711132969, 0.0, 0.0, 0.0, 0.0, 0.0, 0.0, 0.0, 0.082, 0.03, 0.986, 192.0, 0.0, 0.0, 0.0, 0.0, 0.0, 0.0, 0.0, 0.0, 0.0, 1.740935695868717E9, 0.0, 2025-03-02 19:14:55.868
122.0, 3797.069644578653, 0.0, 0.0, 0.0, 0.0, 0.0, 0.0, 0.0, 0.082, 0.03, 0.986, 192.0, 0.0, 0.0, 0.0, 0.0, 0.0, 0.0, 0.0, 0.0, 0.0, 1.740935695868768E9, 0.0, 2025-03-02 19:14:55.868
123.0, 3834.620575263569, 0.0, 0.0, 0.0, 0.0, 0.0, 0.0, 0.0, 0.082, 0.03, 0.986, 192.0, 0.0, 0.0, 0.0, 0.0, 0.0, 0.0, 0.0, 0.0, 0.0, 1.740935695868807E9, 0.0, 2025-03-02 19:14:55.868
124.0, 3802.210545803374, 0.0, 0.0, 0.0, 0.0, 0.0, 0.0, 0.0, 0.082, 0.03, 0.986, 192.0, 0.0, 0.0, 0.0, 0.0, 0.0, 0.0, 0.0, 0.0, 0.0, 1.74093569586892E9, 0.0, 2025-03-02 19:14:55.868
125.0, 3771.4545454328713, 0.0, 0.0, 0.0, 0.0, 0.0, 0.0, 0.0, 0.084, 0.034, 0.986, 192.0, 2.0, 160.0, 1.0, 16.0, 30.0, 208.0, 0.0, 0.0, 0.0, 1.740935695868979E9, 0.0, 2025-03-02 19:14:55.868
126.0, 3771.3874901995055, 0.0, 0.0, 0.0, 0.0, 0.0, 0.0, 0.0, 0.084, 0.034, 0.986, 192.0, 0.0, 0.0, 0.0, 0.0, 0.0, 0.0, 0.0, 0.0, 0.0, 1.740935695869049E9, 0.0, 2025-03-02 19:14:55.869
127.0, 3793.5157172102595, 0.0, 0.0, 0.0, 0.0, 0.0, 0.0, 0.0, 0.084, 0.034, 0.986, 192.0, 0.0, 0.0, 0.0, 0.0, 0.0, 0.0, 0.0, 0.0, 0.0, 1.740935695869089E9, 0.0, 2025-03-02 19:14:55.869
128.0, 3826.3504298151056, 0.0, 0.0, 0.0, 0.0, 0.0, 0.0, 0.0, 0.084, 0.034, 0.986, 192.0, 0.0, 0.0, 0.0, 0.0, 0.0, 0.0, 0.0, 0.0, 0.0, 1.740935695869139E9, 0.0, 2025-03-02 19:14:55.869
129.0, 3798.7683771572565, 0.0, 0.0, 0.0, 0.0, 0.0, 0.0, 0.0, 0.084, 0.034, 0.986, 192.0, 0.0, 0.0, 0.0, 0.0, 0.0, 0.0, 0.0, 0.0, 0.0, 1.740935695869184E9, 0.0, 2025-03-02 19:14:55.869
130.0, 3770.3146064656507, 0.0, 0.0, 0.0, 0.0, 0.0, 0.0, 0.0, 0.084, 0.034, 0.986, 192.0, 0.0, 0.0, 0.0, 0.0, 0.0, 0.0, 0.0, 0.0, 0.0, 1.740935695869209E9, 0.0, 2025-03-02 19:14:55.869
131.0, 3769.2193709873404, 0.0, 0.0, 0.0, 0.0, 0.0, 0.0, 0.0, 0.084, 0.034, 0.986, 192.0, 0.0, 0.0, 0.0, 0.0, 0.0, 0.0, 0.0, 0.0, 0.0, 1.740935695869233E9, 0.0, 2025-03-02 19:14:55.869
132.0, 3791.884039865022, 0.0, 0.0, 0.0, 0.0, 0.0, 0.0, 0.0, 0.084, 0.034, 0.986, 192.0, 0.0, 0.0, 0.0, 0.0, 0.0, 0.0, 0.0, 0.0, 0.0, 1.740935695869258E9, 0.0, 2025-03-02 19:14:55.869
133.0, 3837.8615782095885, 0.0, 0.0, 0.0, 0.0, 0.0, 0.0, 0.0, 0.084, 0.034, 0.986, 192.0, 0.0, 0.0, 0.0, 0.0, 0.0, 0.0, 0.0, 0.0, 0.0, 1.740935695869282E9, 0.0, 2025-03-02 19:14:55.869
134.0, 3811.9335546414322, 0.0, 0.0, 0.0, 0.0, 0.0, 0.0, 0.0, 0.084, 0.034, 0.986, 192.0, 0.0, 0.0, 0.0, 0.0, 0.0, 0.0, 0.0, 0.0, 0.0, 1.740935695869307E9, 0.0, 2025-03-02 19:14:55.869
135.0, 3778.0930135360977, 0.0, 0.0, 0.0, 0.0, 0.0, 0.0, 0.0, 0.08, 0.032, 0.988, 192.0, 2.0, 128.0, 1.0, 0.0, 30.0, 224.0, 0.0, 0.0, 0.0, 1.740935695869332E9, 0.0, 2025-03-02 19:14:55.869
136.0, 3776.5730949131366, 0.0, 0.0, 0.0, 0.0, 0.0, 0.0, 0.0, 0.08, 0.032, 0.988, 192.0, 0.0, 0.0, 0.0, 0.0, 0.0, 0.0, 0.0, 0.0, 0.0, 1.740935695928128E9, 0.0, 2025-03-02 19:14:55.928
137.0, 3797.986066101321, 0.0, 0.0, 0.0, 0.0, 0.0, 0.0, 0.0, 0.08, 0.032, 0.988, 192.0, 0.0, 0.0, 0.0, 0.0, 0.0, 0.0, 0.0, 0.0, 0.0, 1.740935695928178E9, 0.0, 2025-03-02 19:14:55.928
138.0, 3832.8547874516, 0.0, 0.0, 0.0, 0.0, 0.0, 0.0, 0.0, 0.08, 0.032, 0.988, 192.0, 0.0, 0.0, 0.0, 0.0, 0.0, 0.0, 0.0, 0.0, 0.0, 1.740935695928205E9, 0.0, 2025-03-02 19:14:55.928
139.0, 3802.948153370399, 0.0, 0.0, 0.0, 0.0, 0.0, 0.0, 0.0, 0.08, 0.032, 0.988, 192.0, 0.0, 0.0, 0.0, 0.0, 0.0, 0.0, 0.0, 0.0, 0.0, 1.74093569592823E9, 0.0, 2025-03-02 19:14:55.928
140.0, 3770.4710686768376, 0.0, 0.0, 0.0, 0.0, 0.0, 0.0, 0.0, 0.08, 0.032, 0.988, 192.0, 0.0, 0.0, 0.0, 0.0, 0.0, 0.0, 0.0, 0.0, 0.0, 1.740935695928255E9, 0.0, 2025-03-02 19:14:55.928
141.0, 3770.4710686768376, 0.0, 0.0, 0.0, 0.0, 0.0, 0.0, 0.0, 0.08, 0.032, 0.988, 192.0, 0.0, 0.0, 0.0, 0.0, 0.0, 0.0, 0.0, 0.0, 0.0, 1.74093569592828E9, 0.0, 2025-03-02 19:14:55.928
142.0, 3796.622609689547, 0.0, 0.0, 0.0, 0.0, 0.0, 0.0, 0.0, 0.08, 0.032, 0.988, 192.0, 0.0, 0.0, 0.0, 0.0, 0.0, 0.0, 0.0, 0.0, 0.0, 1.740935695928353E9, 0.0, 2025-03-02 19:14:55.928
143.0, 3830.396095561516, 0.0, 0.0, 0.0, 0.0, 0.0, 0.0, 0.0, 0.08, 0.032, 0.988, 192.0, 0.0, 0.0, 0.0, 0.0, 0.0, 0.0, 0.0, 0.0, 0.0, 1.740935695928378E9, 0.0, 2025-03-02 19:14:55.928
144.0, 3802.456414992382, 0.0, 0.0, 0.0, 0.0, 0.0, 0.0, 0.0, 0.08, 0.032, 0.988, 192.0, 0.0, 0.0, 0.0, 0.0, 0.0, 0.0, 0.0, 0.0, 0.0, 1.740935695928402E9, 0.0, 2025-03-02 19:14:55.928
145.0, 3771.3204349661396, 0.0, 0.0, 0.0, 0.0, 0.0, 0.0, 0.0, 0.082, 0.03, 0.988, 192.0, 2.0, 144.0, 0.0, 240.0, 30.0, 224.0, 0.0, 0.0, 0.0, 1.740935695928427E9, 0.0, 2025-03-02 19:14:55.928
146.0, 3773.265036733751, 0.0, 0.0, 0.0, 0.0, 0.0, 0.0, 0.0, 0.082, 0.03, 0.988, 192.0, 0.0, 0.0, 0.0, 0.0, 0.0, 0.0, 0.0, 0.0, 0.0, 1.740935695928453E9, 0.0, 2025-03-02 19:14:55.928
147.0, 3797.4719759788486, 0.0, 0.0, 0.0, 0.0, 0.0, 0.0, 0.0, 0.082, 0.03, 0.988, 192.0, 0.0, 0.0, 0.0, 0.0, 0.0, 0.0, 0.0, 0.0, 0.0, 1.740935695928478E9, 0.0, 2025-03-02 19:14:55.928
148.0, 3833.9500229299097, 0.0, 0.0, 0.0, 0.0, 0.0, 0.0, 0.0, 0.082, 0.03, 0.988, 192.0, 0.0, 0.0, 0.0, 0.0, 0.0, 0.0, 0.0, 0.0, 0.0, 1.740935695928502E9, 0.0, 2025-03-02 19:14:55.928
149.0, 3807.396150517005, 0.0, 0.0, 0.0, 0.0, 0.0, 0.0, 0.0, 0.082, 0.03, 0.988, 192.0, 0.0, 0.0, 0.0, 0.0, 0.0, 0.0, 0.0, 0.0, 0.0, 1.740935695928552E9, 0.0, 2025-03-02 19:14:55.928
150.0, 3776.014301301754, 0.0, 0.0, 0.0, 0.0, 0.0, 0.0, 0.0, 0.082, 0.03, 0.988, 192.0, 0.0, 0.0, 0.0, 0.0, 0.0, 0.0, 0.0, 0.0, 0.0, 1.740935695928578E9, 0.0, 2025-03-02 19:14:55.928
151.0, 3777.735385624813, 0.0, 0.0, 0.0, 0.0, 0.0, 0.0, 0.0, 0.082, 0.03, 0.988, 192.0, 0.0, 0.0, 0.0, 0.0, 0.0, 0.0, 0.0, 0.0, 0.0, 1.740935695987746E9, 0.0, 2025-03-02 19:14:55.987
152.0, 3802.232897547829, 0.0, 0.0, 0.0, 0.0, 0.0, 0.0, 0.0, 0.082, 0.03, 0.988, 192.0, 0.0, 0.0, 0.0, 0.0, 0.0, 0.0, 0.0, 0.0, 0.0, 1.740935695987799E9, 0.0, 2025-03-02 19:14:55.987
153.0, 3836.296956097717, 0.0, 0.0, 0.0, 0.0, 0.0, 0.0, 0.0, 0.082, 0.03, 0.988, 192.0, 0.0, 0.0, 0.0, 0.0, 0.0, 0.0, 0.0, 0.0, 0.0, 1.740935695987827E9, 0.0, 2025-03-02 19:14:55.987
154.0, 3812.246479063807, 0.0, 0.0, 0.0, 0.0, 0.0, 0.0, 0.0, 0.082, 0.03, 0.988, 192.0, 0.0, 0.0, 0.0, 0.0, 0.0, 0.0, 0.0, 0.0, 0.0, 1.740935695987852E9, 0.0, 2025-03-02 19:14:55.987
155.0, 3790.9229148534437, 0.0, 0.0, 0.0, 0.0, 0.0, 0.0, 0.0, 0.082, 0.032, 0.976, 192.0, 2.0, 144.0, 1.0, 0.0, 30.0, 128.0, 0.0, 0.0, 0.0, 1.740935695987877E9, 0.0, 2025-03-02 19:14:55.987
156.0, 3794.298028266195, 0.0, 0.0, 0.0, 0.0, 0.0, 0.0, 0.0, 0.082, 0.032, 0.976, 192.0, 0.0, 0.0, 0.0, 0.0, 0.0, 0.0, 0.0, 0.0, 0.0, 1.740935695987904E9, 0.0, 2025-03-02 19:14:55.987
157.0, 3815.107502354086, 0.0, 0.0, 0.0, 0.0, 0.0, 0.0, 0.0, 0.082, 0.032, 0.976, 192.0, 0.0, 0.0, 0.0, 0.0, 0.0, 0.0, 0.0, 0.0, 0.0, 1.740935695987929E9, 0.0, 2025-03-02 19:14:55.987
158.0, 3848.746877759323, 0.0, 0.0, 0.0, 0.0, 0.0, 0.0, 0.0, 0.082, 0.032, 0.976, 192.0, 0.0, 0.0, 0.0, 0.0, 0.0, 0.0, 0.0, 0.0, 0.0, 1.740935695987953E9, 0.0, 2025-03-02 19:14:55.987
159.0, 3826.7080577263905, 0.0, 0.0, 0.0, 0.0, 0.0, 0.0, 0.0, 0.082, 0.032, 0.976, 192.0, 0.0, 0.0, 0.0, 0.0, 0.0, 0.0, 0.0, 0.0, 0.0, 1.740935695988033E9, 0.0, 2025-03-02 19:14:55.988
160.0, 3800.914144624966, 0.0, 0.0, 0.0, 0.0, 0.0, 0.0, 0.0, 0.082, 0.032, 0.976, 192.0, 0.0, 0.0, 0.0, 0.0, 0.0, 0.0, 0.0, 0.0, 0.0, 1.740935695988058E9, 0.0, 2025-03-02 19:14:55.988
161.0, 3799.327170768639, 0.0, 0.0, 0.0, 0.0, 0.0, 0.0, 0.0, 0.082, 0.032, 0.976, 192.0, 0.0, 0.0, 0.0, 0.0, 0.0, 0.0, 0.0, 0.0, 0.0, 1.740935695988082E9, 0.0, 2025-03-02 19:14:55.988
162.0, 3818.9743541448543, 0.0, 0.0, 0.0, 0.0, 0.0, 0.0, 0.0, 0.082, 0.032, 0.976, 192.0, 0.0, 0.0, 0.0, 0.0, 0.0, 0.0, 0.0, 0.0, 0.0, 1.740935695988107E9, 0.0, 2025-03-02 19:14:55.988
163.0, 3853.038412694742, 0.0, 0.0, 0.0, 0.0, 0.0, 0.0, 0.0, 0.082, 0.032, 0.976, 192.0, 0.0, 0.0, 0.0, 0.0, 0.0, 0.0, 0.0, 0.0, 0.0, 1.740935695988132E9, 0.0, 2025-03-02 19:14:55.988
164.0, 3829.904357183499, 0.0, 0.0, 0.0, 0.0, 0.0, 0.0, 0.0, 0.082, 0.004, 0.986, 192.0, 2.0, 144.0, 0.0, 32.0, 30.0, 208.0, 0.0, 0.0, 0.0, 1.740935695988156E9, 0.0, 2025-03-02 19:14:55.988
165.0, 3803.395188259505, 0.0, 0.0, 0.0, 0.0, 0.0, 0.0, 0.0, 0.082, 0.004, 0.986, 192.0, 0.0, 0.0, 0.0, 0.0, 0.0, 0.0, 0.0, 0.0, 0.0, 1.740935695988182E9, 0.0, 2025-03-02 19:14:55.988
166.0, 3805.4739004938488, 0.0, 0.0, 0.0, 0.0, 0.0, 0.0, 0.0, 0.082, 0.004, 0.986, 192.0, 0.0, 0.0, 0.0, 0.0, 0.0, 0.0, 0.0, 0.0, 0.0, 1.740935696048121E9, 0.0, 2025-03-02 19:14:56.048
167.0, 3824.785807703234, 0.0, 0.0, 0.0, 0.0, 0.0, 0.0, 0.0, 0.082, 0.004, 0.986, 192.0, 0.0, 0.0, 0.0, 0.0, 0.0, 0.0, 0.0, 0.0, 0.0, 1.74093569604817E9, 0.0, 2025-03-02 19:14:56.048
168.0, 3854.1783516619626, 0.0, 0.0, 0.0, 0.0, 0.0, 0.0, 0.0, 0.082, 0.004, 0.986, 192.0, 0.0, 0.0, 0.0, 0.0, 0.0, 0.0, 0.0, 0.0, 0.0, 1.740935696048197E9, 0.0, 2025-03-02 19:14:56.048
169.0, 3824.1823106029406, 0.0, 0.0, 0.0, 0.0, 0.0, 0.0, 0.0, 0.082, 0.004, 0.986, 192.0, 0.0, 0.0, 0.0, 0.0, 0.0, 0.0, 0.0, 0.0, 0.0, 1.740935696048222E9, 0.0, 2025-03-02 19:14:56.048
170.0, 3796.019112589254, 0.0, 0.0, 0.0, 0.0, 0.0, 0.0, 0.0, 0.082, 0.004, 0.986, 192.0, 0.0, 0.0, 0.0, 0.0, 0.0, 0.0, 0.0, 0.0, 0.0, 1.740935696048246E9, 0.0, 2025-03-02 19:14:56.048
171.0, 3793.985103843821, 0.0, 0.0, 0.0, 0.0, 0.0, 0.0, 0.0, 0.082, 0.004, 0.986, 192.0, 0.0, 0.0, 0.0, 0.0, 0.0, 0.0, 0.0, 0.0, 0.0, 1.74093569604827E9, 0.0, 2025-03-02 19:14:56.048
172.0, 3808.13375808403, 0.0, 0.0, 0.0, 0.0, 0.0, 0.0, 0.0, 0.082, 0.004, 0.986, 192.0, 0.0, 0.0, 0.0, 0.0, 0.0, 0.0, 0.0, 0.0, 0.0, 1.740935696048294E9, 0.0, 2025-03-02 19:14:56.048
173.0, 3838.8003514767115, 0.0, 0.0, 0.0, 0.0, 0.0, 0.0, 0.0, 0.082, 0.004, 0.986, 192.0, 0.0, 0.0, 0.0, 0.0, 0.0, 0.0, 0.0, 0.0, 0.0, 1.740935696048318E9, 0.0, 2025-03-02 19:14:56.048
174.0, 3809.340752284617, 0.0, 0.0, 0.0, 0.0, 0.0, 0.0, 0.0, 0.082, 0.022, 0.972, 192.0, 2.0, 144.0, 0.0, 176.0, 30.0, 96.0, 0.0, 0.0, 0.0, 1.740935696048343E9, 0.0, 2025-03-02 19:14:56.048
175.0, 3780.305836237173, 0.0, 0.0, 0.0, 0.0, 0.0, 0.0, 0.0, 0.082, 0.022, 0.972, 192.0, 0.0, 0.0, 0.0, 0.0, 0.0, 0.0, 0.0, 0.0, 0.0, 1.740935696048369E9, 0.0, 2025-03-02 19:14:56.048
176.0, 3776.3048739796727, 0.0, 0.0, 0.0, 0.0, 0.0, 0.0, 0.0, 0.082, 0.022, 0.972, 192.0, 0.0, 0.0, 0.0, 0.0, 0.0, 0.0, 0.0, 0.0, 0.0, 1.740935696048393E9, 0.0, 2025-03-02 19:14:56.048
177.0, 3788.486574707815, 0.0, 0.0, 0.0, 0.0, 0.0, 0.0, 0.0, 0.082, 0.022, 0.972, 192.0, 0.0, 0.0, 0.0, 0.0, 0.0, 0.0, 0.0, 0.0, 0.0, 1.740935696048494E9, 0.0, 2025-03-02 19:14:56.048
178.0, 3813.22995581984, 0.0, 0.0, 0.0, 0.0, 0.0, 0.0, 0.0, 0.082, 0.022, 0.972, 192.0, 0.0, 0.0, 0.0, 0.0, 0.0, 0.0, 0.0, 0.0, 0.0, 1.74093569604856E9, 0.0, 2025-03-02 19:14:56.048
179.0, 3790.2523625197846, 0.0, 0.0, 0.0, 0.0, 0.0, 0.0, 0.0, 0.082, 0.022, 0.972, 192.0, 0.0, 0.0, 0.0, 0.0, 0.0, 0.0, 0.0, 0.0, 0.0, 1.740935696048607E9, 0.0, 2025-03-02 19:14:56.048
180.0, 3763.6090831290585, 0.0, 0.0, 0.0, 0.0, 0.0, 0.0, 0.0, 0.082, 0.022, 0.972, 192.0, 0.0, 0.0, 0.0, 0.0, 0.0, 0.0, 0.0, 0.0, 0.0, 1.740935696048653E9, 0.0, 2025-03-02 19:14:56.048
181.0, 3760.9268737944217, 0.0, 0.0, 0.0, 0.0, 0.0, 0.0, 0.0, 0.082, 0.022, 0.972, 192.0, 0.0, 0.0, 0.0, 0.0, 0.0, 0.0, 0.0, 0.0, 0.0, 1.740935696108303E9, 0.0, 2025-03-02 19:14:56.108
182.0, 3783.323321738639, 0.0, 0.0, 0.0, 0.0, 0.0, 0.0, 0.0, 0.082, 0.022, 0.972, 192.0, 0.0, 0.0, 0.0, 0.0, 0.0, 0.0, 0.0, 0.0, 0.0, 1.740935696108373E9, 0.0, 2025-03-02 19:14:56.108
183.0, 3809.988952873821, 0.0, 0.0, 0.0, 0.0, 0.0, 0.0, 0.0, 0.082, 0.022, 0.972, 192.0, 0.0, 0.0, 0.0, 0.0, 0.0, 0.0, 0.0, 0.0, 0.0, 1.740935696108417E9, 0.0, 2025-03-02 19:14:56.108
184.0, 3782.5410106827035, 0.0, 0.0, 0.0, 0.0, 0.0, 0.0, 0.0, 0.092, 0.024, 0.992, 192.0, 2.0, 224.0, 0.0, 192.0, 31.0, 0.0, 0.0, 0.0, 0.0, 1.74093569610846E9, 0.0, 2025-03-02 19:14:56.108
185.0, 3758.401126670972, 0.0, 0.0, 0.0, 0.0, 0.0, 0.0, 0.0, 0.092, 0.024, 0.992, 192.0, 0.0, 0.0, 0.0, 0.0, 0.0, 0.0, 0.0, 0.0, 0.0, 1.740935696108529E9, 0.0, 2025-03-02 19:14:56.108
186.0, 3760.7033563498685, 0.0, 0.0, 0.0, 0.0, 0.0, 0.0, 0.0, 0.092, 0.024, 0.992, 192.0, 0.0, 0.0, 0.0, 0.0, 0.0, 0.0, 0.0, 0.0, 0.0, 1.740935696108576E9, 0.0, 2025-03-02 19:14:56.108
187.0, 3779.434118203416, 0.0, 0.0, 0.0, 0.0, 0.0, 0.0, 0.0, 0.092, 0.024, 0.992, 192.0, 0.0, 0.0, 0.0, 0.0, 0.0, 0.0, 0.0, 0.0, 0.0, 1.740935696108618E9, 0.0, 2025-03-02 19:14:56.108
188.0, 3807.7984819172007, 0.0, 0.0, 0.0, 0.0, 0.0, 0.0, 0.0, 0.092, 0.024, 0.992, 192.0, 0.0, 0.0, 0.0, 0.0, 0.0, 0.0, 0.0, 0.0, 0.0, 1.740935696108658E9, 0.0, 2025-03-02 19:14:56.108
189.0, 3782.1386792825083, 0.0, 0.0, 0.0, 0.0, 0.0, 0.0, 0.0, 0.092, 0.024, 0.992, 192.0, 0.0, 0.0, 0.0, 0.0, 0.0, 0.0, 0.0, 0.0, 0.0, 1.740935696108699E9, 0.0, 2025-03-02 19:14:56.108
190.0, 3754.5119231357485, 0.0, 0.0, 0.0, 0.0, 0.0, 0.0, 0.0, 0.092, 0.024, 0.992, 192.0, 0.0, 0.0, 0.0, 0.0, 0.0, 0.0, 0.0, 0.0, 0.0, 1.740935696108741E9, 0.0, 2025-03-02 19:14:56.108
191.0, 3759.3622516825503, 0.0, 0.0, 0.0, 0.0, 0.0, 0.0, 0.0, 0.092, 0.024, 0.992, 192.0, 0.0, 0.0, 0.0, 0.0, 0.0, 0.0, 0.0, 0.0, 0.0, 1.740935696108783E9, 0.0, 2025-03-02 19:14:56.108
192.0, 3778.495344936293, 0.0, 0.0, 0.0, 0.0, 0.0, 0.0, 0.0, 0.092, 0.024, 0.992, 192.0, 0.0, 0.0, 0.0, 0.0, 0.0, 0.0, 0.0, 0.0, 0.0, 1.740935696108826E9, 0.0, 2025-03-02 19:14:56.108
193.0, 3807.306743539184, 0.0, 0.0, 0.0, 0.0, 0.0, 0.0, 0.0, 0.092, 0.024, 0.992, 192.0, 0.0, 0.0, 0.0, 0.0, 0.0, 0.0, 0.0, 0.0, 0.0, 1.740935696108868E9, 0.0, 2025-03-02 19:14:56.108
194.0, 3782.3845484715166, 0.0, 0.0, 0.0, 0.0, 0.0, 0.0, 0.0, 0.076, 0.036000000000000004, 0.98, 192.0, 2.0, 96.0, 1.0, 32.0, 30.0, 160.0, 0.0, 0.0, 0.0, 1.74093569610891E9, 0.0, 2025-03-02 19:14:56.108
195.0, 3755.7859725697012, 0.0, 0.0, 0.0, 0.0, 0.0, 0.0, 0.0, 0.076, 0.036000000000000004, 0.98, 192.0, 0.0, 0.0, 0.0, 0.0, 0.0, 0.0, 0.0, 0.0, 0.0, 1.740935696109021E9, 0.0, 2025-03-02 19:14:56.109
196.0, 3757.5070568927595, 0.0, 0.0, 0.0, 0.0, 0.0, 0.0, 0.0, 0.076, 0.036000000000000004, 0.98, 192.0, 0.0, 0.0, 0.0, 0.0, 0.0, 0.0, 0.0, 0.0, 0.0, 1.740935696168603E9, 0.0, 2025-03-02 19:14:56.168
197.0, 3773.8014786006784, 0.0, 0.0, 0.0, 0.0, 0.0, 0.0, 0.0, 0.076, 0.036000000000000004, 0.98, 192.0, 0.0, 0.0, 0.0, 0.0, 0.0, 0.0, 0.0, 0.0, 0.0, 1.74093569616867E9, 0.0, 2025-03-02 19:14:56.168
198.0, 3806.2562115497844, 0.0, 0.0, 0.0, 0.0, 0.0, 0.0, 0.0, 0.076, 0.036000000000000004, 0.98, 192.0, 0.0, 0.0, 0.0, 0.0, 0.0, 0.0, 0.0, 0.0, 0.0, 1.740935696168712E9, 0.0, 2025-03-02 19:14:56.168
199.0, 3773.265036733751, 0.0, 0.0, 0.0, 0.0, 0.0, 0.0, 0.0, 0.076, 0.036000000000000004, 0.98, 192.0, 0.0, 0.0, 0.0, 0.0, 0.0, 0.0, 0.0, 0.0, 0.0, 1.740935696168753E9, 0.0, 2025-03-02 19:14:56.168
200.0, 3728.2262716563073, 0.0, 0.0, 0.0, 0.0, 0.0, 0.0, 0.0, 0.076, 0.036000000000000004, 0.98, 192.0, 0.0, 0.0, 0.0, 0.0, 0.0, 0.0, 0.0, 0.0, 0.0, 1.740935696168792E9, 0.0, 2025-03-02 19:14:56.168
201.0, 3708.8473092135564, 0.0, 0.0, 0.0, 0.0, 0.0, 0.0, 0.0, 0.076, 0.036000000000000004, 0.98, 192.0, 0.0, 0.0, 0.0, 0.0, 0.0, 0.0, 0.0, 0.0, 0.0, 1.740935696168832E9, 0.0, 2025-03-02 19:14:56.168
202.0, 3712.915326704422, 0.0, 0.0, 0.0, 0.0, 0.0, 0.0, 0.0, 0.076, 0.036000000000000004, 0.98, 192.0, 0.0, 0.0, 0.0, 0.0, 0.0, 0.0, 0.0, 0.0, 0.0, 1.740935696168873E9, 0.0, 2025-03-02 19:14:56.168
203.0, 3747.5381788656928, 0.0, 0.0, 0.0, 0.0, 0.0, 0.0, 0.0, 0.076, 0.036000000000000004, 0.98, 192.0, 0.0, 0.0, 0.0, 0.0, 0.0, 0.0, 0.0, 0.0, 0.0, 1.740935696168912E9, 0.0, 2025-03-02 19:14:56.168
204.0, 3729.790893768179, 0.0, 0.0, 0.0, 0.0, 0.0, 0.0, 0.0, 0.092, 0.012, 0.99, 192.0, 2.0, 224.0, 0.0, 96.0, 30.0, 240.0, 0.0, 0.0, 0.0, 1.740935696168952E9, 0.0, 2025-03-02 19:14:56.168
205.0, 3706.5674312791148, 0.0, 0.0, 0.0, 0.0, 0.0, 0.0, 0.0, 0.092, 0.012, 0.99, 192.0, 0.0, 0.0, 0.0, 0.0, 0.0, 0.0, 0.0, 0.0, 0.0, 1.740935696168994E9, 0.0, 2025-03-02 19:14:56.168
206.0, 3713.921155204911, 0.0, 0.0, 0.0, 0.0, 0.0, 0.0, 0.0, 0.092, 0.012, 0.99, 192.0, 0.0, 0.0, 0.0, 0.0, 0.0, 0.0, 0.0, 0.0, 0.0, 1.740935696169033E9, 0.0, 2025-03-02 19:14:56.169
207.0, 3740.6761933179137, 0.0, 0.0, 0.0, 0.0, 0.0, 0.0, 0.0, 0.092, 0.012, 0.99, 192.0, 0.0, 0.0, 0.0, 0.0, 0.0, 0.0, 0.0, 0.0, 0.0, 1.740935696169072E9, 0.0, 2025-03-02 19:14:56.169
208.0, 3782.339844982606, 0.0, 0.0, 0.0, 0.0, 0.0, 0.0, 0.0, 0.092, 0.012, 0.99, 192.0, 0.0, 0.0, 0.0, 0.0, 0.0, 0.0, 0.0, 0.0, 0.0, 1.740935696169112E9, 0.0, 2025-03-02 19:14:56.169
209.0, 3763.3185104511394, 0.0, 0.0, 0.0, 0.0, 0.0, 0.0, 0.0, 0.092, 0.012, 0.99, 192.0, 0.0, 0.0, 0.0, 0.0, 0.0, 0.0, 0.0, 0.0, 0.0, 1.740935696169152E9, 0.0, 2025-03-02 19:14:56.169
210.0, 3737.055210716154, 0.0, 0.0, 0.0, 0.0, 0.0, 0.0, 0.0, 0.092, 0.012, 0.99, 192.0, 0.0, 0.0, 0.0, 0.0, 0.0, 0.0, 0.0, 0.0, 0.0, 1.740935696169192E9, 0.0, 2025-03-02 19:14:56.169
211.0, 3741.592614840581, 0.0, 0.0, 0.0, 0.0, 0.0, 0.0, 0.0, 0.092, 0.012, 0.99, 192.0, 0.0, 0.0, 0.0, 0.0, 0.0, 0.0, 0.0, 0.0, 0.0, 1.740935696228053E9, 0.0, 2025-03-02 19:14:56.228
212.0, 3761.195094727885, 0.0, 0.0, 0.0, 0.0, 0.0, 0.0, 0.0, 0.092, 0.012, 0.99, 192.0, 0.0, 0.0, 0.0, 0.0, 0.0, 0.0, 0.0, 0.0, 0.0, 1.740935696228188E9, 0.0, 2025-03-02 19:14:56.228
213.0, 3799.4389294909156, 0.0, 0.0, 0.0, 0.0, 0.0, 0.0, 0.0, 0.088, 0.022, 0.986, 192.0, 2.0, 192.0, 0.0, 176.0, 30.0, 208.0, 0.0, 0.0, 0.0, 1.740935696228234E9, 0.0, 2025-03-02 19:14:56.228
214.0, 3780.9316850819214, 0.0, 0.0, 0.0, 0.0, 0.0, 0.0, 0.0, 0.088, 0.022, 0.986, 192.0, 0.0, 0.0, 0.0, 0.0, 0.0, 0.0, 0.0, 0.0, 0.0, 1.740935696228279E9, 0.0, 2025-03-02 19:14:56.228
215.0, 3751.4720858898268, 0.0, 0.0, 0.0, 0.0, 0.0, 0.0, 0.0, 0.088, 0.022, 0.986, 192.0, 0.0, 0.0, 0.0, 0.0, 0.0, 0.0, 0.0, 0.0, 0.0, 1.740935696228321E9, 0.0, 2025-03-02 19:14:56.228
216.0, 3751.986176012299, 0.0, 0.0, 0.0, 0.0, 0.0, 0.0, 0.0, 0.088, 0.022, 0.986, 192.0, 0.0, 0.0, 0.0, 0.0, 0.0, 0.0, 0.0, 0.0, 0.0, 1.740935696228363E9, 0.0, 2025-03-02 19:14:56.228
217.0, 3772.214504744352, 0.0, 0.0, 0.0, 0.0, 0.0, 0.0, 0.0, 0.088, 0.022, 0.986, 192.0, 0.0, 0.0, 0.0, 0.0, 0.0, 0.0, 0.0, 0.0, 0.0, 1.740935696228405E9, 0.0, 2025-03-02 19:14:56.228
218.0, 3808.4690342508597, 0.0, 0.0, 0.0, 0.0, 0.0, 0.0, 0.0, 0.088, 0.022, 0.986, 192.0, 0.0, 0.0, 0.0, 0.0, 0.0, 0.0, 0.0, 0.0, 0.0, 1.740935696228447E9, 0.0, 2025-03-02 19:14:56.228
219.0, 3787.9277810964327, 0.0, 0.0, 0.0, 0.0, 0.0, 0.0, 0.0, 0.088, 0.022, 0.986, 192.0, 0.0, 0.0, 0.0, 0.0, 0.0, 0.0, 0.0, 0.0, 0.0, 1.74093569622849E9, 0.0, 2025-03-02 19:14:56.228
220.0, 3760.748059838779, 0.0, 0.0, 0.0, 0.0, 0.0, 0.0, 0.0, 0.088, 0.022, 0.986, 192.0, 0.0, 0.0, 0.0, 0.0, 0.0, 0.0, 0.0, 0.0, 0.0, 1.740935696228549E9, 0.0, 2025-03-02 19:14:56.228
221.0, 3757.4176499149385, 0.0, 0.0, 0.0, 0.0, 0.0, 0.0, 0.0, 0.088, 0.022, 0.986, 192.0, 0.0, 0.0, 0.0, 0.0, 0.0, 0.0, 0.0, 0.0, 0.0, 1.740935696228591E9, 0.0, 2025-03-02 19:14:56.228
222.0, 3777.2436472467957, 0.0, 0.0, 0.0, 0.0, 0.0, 0.0, 0.0, 0.088, 0.022, 0.986, 192.0, 0.0, 0.0, 0.0, 0.0, 0.0, 0.0, 0.0, 0.0, 0.0, 1.740935696228648E9, 0.0, 2025-03-02 19:14:56.228
223.0, 3816.180386087941, 0.0, 0.0, 0.0, 0.0, 0.0, 0.0, 0.0, 0.08600000000000001, 0.022, 0.992, 192.0, 2.0, 176.0, 0.0, 176.0, 31.0, 0.0, 0.0, 0.0, 0.0, 1.74093569622869E9, 0.0, 2025-03-02 19:14:56.228
224.0, 3794.946228855399, 0.0, 0.0, 0.0, 0.0, 0.0, 0.0, 0.0, 0.08600000000000001, 0.022, 0.992, 192.0, 0.0, 0.0, 0.0, 0.0, 0.0, 0.0, 0.0, 0.0, 0.0, 1.740935696228735E9, 0.0, 2025-03-02 19:14:56.228
225.0, 3764.9278360519215, 0.0, 0.0, 0.0, 0.0, 0.0, 0.0, 0.0, 0.08600000000000001, 0.022, 0.992, 192.0, 0.0, 0.0, 0.0, 0.0, 0.0, 0.0, 0.0, 0.0, 0.0, 1.740935696228778E9, 0.0, 2025-03-02 19:14:56.228
226.0, 3766.0901267635977, 0.0, 0.0, 0.0, 0.0, 0.0, 0.0, 0.0, 0.08600000000000001, 0.022, 0.992, 192.0, 0.0, 0.0, 0.0, 0.0, 0.0, 0.0, 0.0, 0.0, 0.0, 1.740935696287839E9, 0.0, 2025-03-02 19:14:56.287
227.0, 3782.3845484715166, 0.0, 0.0, 0.0, 0.0, 0.0, 0.0, 0.0, 0.08600000000000001, 0.022, 0.992, 192.0, 0.0, 0.0, 0.0, 0.0, 0.0, 0.0, 0.0, 0.0, 0.0, 1.740935696287888E9, 0.0, 2025-03-02 19:14:56.287
228.0, 3821.365990801572, 0.0, 0.0, 0.0, 0.0, 0.0, 0.0, 0.0, 0.08600000000000001, 0.022, 0.992, 192.0, 0.0, 0.0, 0.0, 0.0, 0.0, 0.0, 0.0, 0.0, 0.0, 1.740935696287915E9, 0.0, 2025-03-02 19:14:56.287
229.0, 3800.6682754359576, 0.0, 0.0, 0.0, 0.0, 0.0, 0.0, 0.0, 0.08600000000000001, 0.022, 0.992, 192.0, 0.0, 0.0, 0.0, 0.0, 0.0, 0.0, 0.0, 0.0, 0.0, 1.74093569628794E9, 0.0, 2025-03-02 19:14:56.287
230.0, 3766.5371616527036, 0.0, 0.0, 0.0, 0.0, 0.0, 0.0, 0.0, 0.08600000000000001, 0.022, 0.992, 192.0, 0.0, 0.0, 0.0, 0.0, 0.0, 0.0, 0.0, 0.0, 0.0, 1.740935696288016E9, 0.0, 2025-03-02 19:14:56.288
231.0, 3761.887998806, 0.0, 0.0, 0.0, 0.0, 0.0, 0.0, 0.0, 0.08600000000000001, 0.022, 0.992, 192.0, 0.0, 0.0, 0.0, 0.0, 0.0, 0.0, 0.0, 0.0, 0.0, 1.740935696288041E9, 0.0, 2025-03-02 19:14:56.288
232.0, 3781.55753392667, 0.0, 0.0, 0.0, 0.0, 0.0, 0.0, 0.0, 0.08600000000000001, 0.022, 0.992, 192.0, 0.0, 0.0, 0.0, 0.0, 0.0, 0.0, 0.0, 0.0, 0.0, 1.740935696288065E9, 0.0, 2025-03-02 19:14:56.288
233.0, 3823.04237163572, 0.0, 0.0, 0.0, 0.0, 0.0, 0.0, 0.0, 0.078, 0.026000000000000002, 0.984, 192.0, 2.0, 112.0, 0.0, 208.0, 30.0, 192.0, 0.0, 0.0, 0.0, 1.740935696288089E9, 0.0, 2025-03-02 19:14:56.288
234.0, 3800.6682754359576, 0.0, 0.0, 0.0, 0.0, 0.0, 0.0, 0.0, 0.078, 0.026000000000000002, 0.984, 192.0, 0.0, 0.0, 0.0, 0.0, 0.0, 0.0, 0.0, 0.0, 0.0, 1.740935696288115E9, 0.0, 2025-03-02 19:14:56.288
235.0, 3767.36417619755, 0.0, 0.0, 0.0, 0.0, 0.0, 0.0, 0.0, 0.078, 0.026000000000000002, 0.984, 192.0, 0.0, 0.0, 0.0, 0.0, 0.0, 0.0, 0.0, 0.0, 0.0, 1.740935696288139E9, 0.0, 2025-03-02 19:14:56.288
236.0, 3765.5760366411255, 0.0, 0.0, 0.0, 0.0, 0.0, 0.0, 0.0, 0.078, 0.026000000000000002, 0.984, 192.0, 0.0, 0.0, 0.0, 0.0, 0.0, 0.0, 0.0, 0.0, 0.0, 1.740935696288163E9, 0.0, 2025-03-02 19:14:56.288
237.0, 3784.2844467502177, 0.0, 0.0, 0.0, 0.0, 0.0, 0.0, 0.0, 0.078, 0.026000000000000002, 0.984, 192.0, 0.0, 0.0, 0.0, 0.0, 0.0, 0.0, 0.0, 0.0, 0.0, 1.740935696288188E9, 0.0, 2025-03-02 19:14:56.288
238.0, 3819.980182645343, 0.0, 0.0, 0.0, 0.0, 0.0, 0.0, 0.0, 0.078, 0.026000000000000002, 0.984, 192.0, 0.0, 0.0, 0.0, 0.0, 0.0, 0.0, 0.0, 0.0, 0.0, 1.740935696288212E9, 0.0, 2025-03-02 19:14:56.288
239.0, 3797.337865512117, 0.0, 0.0, 0.0, 0.0, 0.0, 0.0, 0.0, 0.078, 0.026000000000000002, 0.984, 192.0, 0.0, 0.0, 0.0, 0.0, 0.0, 0.0, 0.0, 0.0, 0.0, 1.740935696288236E9, 0.0, 2025-03-02 19:14:56.288
240.0, 3766.4701064193378, 0.0, 0.0, 0.0, 0.0, 0.0, 0.0, 0.0, 0.078, 0.026000000000000002, 0.984, 192.0, 0.0, 0.0, 0.0, 0.0, 0.0, 0.0, 0.0, 0.0, 0.0, 1.74093569628826E9, 0.0, 2025-03-02 19:14:56.288
241.0, 3762.9385307953994, 0.0, 0.0, 0.0, 0.0, 0.0, 0.0, 0.0, 0.078, 0.026000000000000002, 0.984, 192.0, 0.0, 0.0, 0.0, 0.0, 0.0, 0.0, 0.0, 0.0, 0.0, 1.740935696348073E9, 0.0, 2025-03-02 19:14:56.348
242.0, 3784.038577561209, 0.0, 0.0, 0.0, 0.0, 0.0, 0.0, 0.0, 0.078, 0.026000000000000002, 0.984, 192.0, 0.0, 0.0, 0.0, 0.0, 0.0, 0.0, 0.0, 0.0, 0.0, 1.740935696348147E9, 0.0, 2025-03-02 19:14:56.348
243.0, 3821.9694879018653, 0.0, 0.0, 0.0, 0.0, 0.0, 0.0, 0.0, 0.082, 0.026000000000000002, 0.984, 192.0, 2.0, 144.0, 0.0, 208.0, 30.0, 192.0, 0.0, 0.0, 0.0, 1.74093569634819E9, 0.0, 2025-03-02 19:14:56.348
244.0, 3800.2882957802176, 0.0, 0.0, 0.0, 0.0, 0.0, 0.0, 0.0, 0.082, 0.026000000000000002, 0.984, 192.0, 0.0, 0.0, 0.0, 0.0, 0.0, 0.0, 0.0, 0.0, 0.0, 1.740935696348236E9, 0.0, 2025-03-02 19:14:56.348
245.0, 3768.8170395871452, 0.0, 0.0, 0.0, 0.0, 0.0, 0.0, 0.0, 0.082, 0.026000000000000002, 0.984, 192.0, 0.0, 0.0, 0.0, 0.0, 0.0, 0.0, 0.0, 0.0, 0.0, 1.740935696348278E9, 0.0, 2025-03-02 19:14:56.348
246.0, 3765.8442575745894, 0.0, 0.0, 0.0, 0.0, 0.0, 0.0, 0.0, 0.082, 0.026000000000000002, 0.984, 192.0, 0.0, 0.0, 0.0, 0.0, 0.0, 0.0, 0.0, 0.0, 0.0, 1.740935696348317E9, 0.0, 2025-03-02 19:14:56.348
247.0, 3780.663464148458, 0.0, 0.0, 0.0, 0.0, 0.0, 0.0, 0.0, 0.082, 0.026000000000000002, 0.984, 192.0, 0.0, 0.0, 0.0, 0.0, 0.0, 0.0, 0.0, 0.0, 0.0, 1.740935696348358E9, 0.0, 2025-03-02 19:14:56.348
248.0, 3819.9354791564324, 0.0, 0.0, 0.0, 0.0, 0.0, 0.0, 0.0, 0.082, 0.026000000000000002, 0.984, 192.0, 0.0, 0.0, 0.0, 0.0, 0.0, 0.0, 0.0, 0.0, 0.0, 1.740935696348478E9, 0.0, 2025-03-02 19:14:56.348
249.0, 3804.177499315441, 0.0, 0.0, 0.0, 0.0, 0.0, 0.0, 0.0, 0.082, 0.026000000000000002, 0.984, 192.0, 0.0, 0.0, 0.0, 0.0, 0.0, 0.0, 0.0, 0.0, 0.0, 1.740935696348535E9, 0.0, 2025-03-02 19:14:56.348
250.0, 3770.4263651879273, 0.0, 0.0, 0.0, 0.0, 0.0, 0.0, 0.0, 0.082, 0.026000000000000002, 0.984, 192.0, 0.0, 0.0, 0.0, 0.0, 0.0, 0.0, 0.0, 0.0, 0.0, 1.740935696348579E9, 0.0, 2025-03-02 19:14:56.348
251.0, 3767.0959552640866, 0.0, 0.0, 0.0, 0.0, 0.0, 0.0, 0.0, 0.082, 0.026000000000000002, 0.984, 192.0, 0.0, 0.0, 0.0, 0.0, 0.0, 0.0, 0.0, 0.0, 0.0, 1.74093569634862E9, 0.0, 2025-03-02 19:14:56.348
252.0, 3779.009435058765, 0.0, 0.0, 0.0, 0.0, 0.0, 0.0, 0.0, 0.076, 0.028, 0.986, 192.0, 2.0, 96.0, 0.0, 224.0, 30.0, 208.0, 0.0, 0.0, 0.0, 1.740935696348662E9, 0.0, 2025-03-02 19:14:56.348
253.0, 3817.6779529664464, 0.0, 0.0, 0.0, 0.0, 0.0, 0.0, 0.0, 0.076, 0.028, 0.986, 192.0, 0.0, 0.0, 0.0, 0.0, 0.0, 0.0, 0.0, 0.0, 0.0, 1.740935696348707E9, 0.0, 2025-03-02 19:14:56.348
254.0, 3802.501118481293, 0.0, 0.0, 0.0, 0.0, 0.0, 0.0, 0.0, 0.076, 0.028, 0.986, 192.0, 0.0, 0.0, 0.0, 0.0, 0.0, 0.0, 0.0, 0.0, 0.0, 1.740935696348746E9, 0.0, 2025-03-02 19:14:56.348
255.0, 3769.8452198320892, 0.0, 0.0, 0.0, 0.0, 0.0, 0.0, 0.0, 0.076, 0.028, 0.986, 192.0, 0.0, 0.0, 0.0, 0.0, 0.0, 0.0, 0.0, 0.0, 0.0, 1.740935696348788E9, 0.0, 2025-03-02 19:14:56.348
0.0, 3768.8170395871452, 0.0, 0.0, 0.0, 0.0, 0.0, 0.0, 0.0, 0.076, 0.028, 0.986, 192.0, 0.0, 0.0, 0.0, 0.0, 0.0, 0.0, 0.0, 0.0, 0.0, 1.740935696407713E9, 0.0, 2025-03-02 19:14:56.407
1.0, 3785.0220543172427, 0.0, 0.0, 0.0, 0.0, 0.0, 0.0, 0.0, 0.076, 0.028, 0.986, 192.0, 0.0, 0.0, 0.0, 0.0, 0.0, 0.0, 0.0, 0.0, 0.0, 1.740935696407779E9, 0.0, 2025-03-02 19:14:56.407
2.0, 3820.0025343897983, 0.0, 0.0, 0.0, 0.0, 0.0, 0.0, 0.0, 0.076, 0.028, 0.986, 192.0, 0.0, 0.0, 0.0, 0.0, 0.0, 0.0, 0.0, 0.0, 0.0, 1.74093569640782E9, 0.0, 2025-03-02 19:14:56.407
3.0, 3799.975371357843, 0.0, 0.0, 0.0, 0.0, 0.0, 0.0, 0.0, 0.076, 0.028, 0.986, 192.0, 0.0, 0.0, 0.0, 0.0, 0.0, 0.0, 0.0, 0.0, 0.0, 1.74093569640786E9, 0.0, 2025-03-02 19:14:56.407
4.0, 3769.4652401763487, 0.0, 0.0, 0.0, 0.0, 0.0, 0.0, 0.0, 0.076, 0.028, 0.986, 192.0, 0.0, 0.0, 0.0, 0.0, 0.0, 0.0, 0.0, 0.0, 0.0, 1.740935696407899E9, 0.0, 2025-03-02 19:14:56.407
5.0, 3767.565341897648, 0.0, 0.0, 0.0, 0.0, 0.0, 0.0, 0.0, 0.076, 0.028, 0.986, 192.0, 0.0, 0.0, 0.0, 0.0, 0.0, 0.0, 0.0, 0.0, 0.0, 1.740935696407938E9, 0.0, 2025-03-02 19:14:56.407
6.0, 3784.396205472494, 0.0, 0.0, 0.0, 0.0, 0.0, 0.0, 0.0, 0.076, 0.024, 0.99, 192.0, 2.0, 96.0, 0.0, 192.0, 30.0, 240.0, 0.0, 0.0, 0.0, 1.740935696407975E9, 0.0, 2025-03-02 19:14:56.407
7.0, 3822.2600605797843, 0.0, 0.0, 0.0, 0.0, 0.0, 0.0, 0.0, 0.076, 0.024, 0.99, 192.0, 0.0, 0.0, 0.0, 0.0, 0.0, 0.0, 0.0, 0.0, 0.0, 1.740935696408015E9, 0.0, 2025-03-02 19:14:56.408
8.0, 3803.0375603482203, 0.0, 0.0, 0.0, 0.0, 0.0, 0.0, 0.0, 0.076, 0.024, 0.99, 192.0, 0.0, 0.0, 0.0, 0.0, 0.0, 0.0, 0.0, 0.0, 0.0, 1.740935696408051E9, 0.0, 2025-03-02 19:14:56.408
9.0, 3772.0580425331646, 0.0, 0.0, 0.0, 0.0, 0.0, 0.0, 0.0, 0.076, 0.024, 0.99, 192.0, 0.0, 0.0, 0.0, 0.0, 0.0, 0.0, 0.0, 0.0, 0.0, 1.740935696408162E9, 0.0, 2025-03-02 19:14:56.408
10.0, 3768.7723360982345, 0.0, 0.0, 0.0, 0.0, 0.0, 0.0, 0.0, 0.076, 0.024, 0.99, 192.0, 0.0, 0.0, 0.0, 0.0, 0.0, 0.0, 0.0, 0.0, 0.0, 1.740935696408203E9, 0.0, 2025-03-02 19:14:56.408
11.0, 3785.7149583953574, 0.0, 0.0, 0.0, 0.0, 0.0, 0.0, 0.0, 0.076, 0.024, 0.99, 192.0, 0.0, 0.0, 0.0, 0.0, 0.0, 0.0, 0.0, 0.0, 0.0, 1.740935696408244E9, 0.0, 2025-03-02 19:14:56.408
12.0, 3824.13760711403, 0.0, 0.0, 0.0, 0.0, 0.0, 0.0, 0.0, 0.076, 0.024, 0.99, 192.0, 0.0, 0.0, 0.0, 0.0, 0.0, 0.0, 0.0, 0.0, 0.0, 1.740935696408284E9, 0.0, 2025-03-02 19:14:56.408
13.0, 3806.5467842277035, 0.0, 0.0, 0.0, 0.0, 0.0, 0.0, 0.0, 0.076, 0.024, 0.99, 192.0, 0.0, 0.0, 0.0, 0.0, 0.0, 0.0, 0.0, 0.0, 0.0, 1.740935696408325E9, 0.0, 2025-03-02 19:14:56.408
14.0, 3775.9025425794775, 0.0, 0.0, 0.0, 0.0, 0.0, 0.0, 0.0, 0.076, 0.024, 0.99, 192.0, 0.0, 0.0, 0.0, 0.0, 0.0, 0.0, 0.0, 0.0, 0.0, 1.740935696408363E9, 0.0, 2025-03-02 19:14:56.408
15.0, 3776.6177984020474, 0.0, 0.0, 0.0, 0.0, 0.0, 0.0, 0.0, 0.076, 0.024, 0.99, 192.0, 0.0, 0.0, 0.0, 0.0, 0.0, 0.0, 0.0, 0.0, 0.0, 1.74093569646799E9, 0.0, 2025-03-02 19:14:56.467
16.0, 3791.168784042452, 0.0, 0.0, 0.0, 0.0, 0.0, 0.0, 0.0, 0.08, 0.024, 0.99, 192.0, 2.0, 128.0, 0.0, 192.0, 30.0, 240.0, 0.0, 0.0, 0.0, 1.740935696468037E9, 0.0, 2025-03-02 19:14:56.468
17.0, 3826.1269123705524, 0.0, 0.0, 0.0, 0.0, 0.0, 0.0, 0.0, 0.08, 0.024, 0.99, 192.0, 0.0, 0.0, 0.0, 0.0, 0.0, 0.0, 0.0, 0.0, 0.0, 1.740935696468065E9, 0.0, 2025-03-02 19:14:56.468
18.0, 3804.2222028043516, 0.0, 0.0, 0.0, 0.0, 0.0, 0.0, 0.0, 0.08, 0.024, 0.99, 192.0, 0.0, 0.0, 0.0, 0.0, 0.0, 0.0, 0.0, 0.0, 0.0, 1.740935696468088E9, 0.0, 2025-03-02 19:14:56.468
19.0, 3775.8354873461117, 0.0, 0.0, 0.0, 0.0, 0.0, 0.0, 0.0, 0.08, 0.024, 0.99, 192.0, 0.0, 0.0, 0.0, 0.0, 0.0, 0.0, 0.0, 0.0, 0.0, 1.740935696468111E9, 0.0, 2025-03-02 19:14:56.468
20.0, 3778.4729931918378, 0.0, 0.0, 0.0, 0.0, 0.0, 0.0, 0.0, 0.08, 0.024, 0.99, 192.0, 0.0, 0.0, 0.0, 0.0, 0.0, 0.0, 0.0, 0.0, 0.0, 1.740935696468134E9, 0.0, 2025-03-02 19:14:56.468
21.0, 3798.8130806461672, 0.0, 0.0, 0.0, 0.0, 0.0, 0.0, 0.0, 0.08, 0.024, 0.99, 192.0, 0.0, 0.0, 0.0, 0.0, 0.0, 0.0, 0.0, 0.0, 0.0, 1.740935696468156E9, 0.0, 2025-03-02 19:14:56.468
22.0, 3832.5642147736808, 0.0, 0.0, 0.0, 0.0, 0.0, 0.0, 0.0, 0.08, 0.024, 0.99, 192.0, 0.0, 0.0, 0.0, 0.0, 0.0, 0.0, 0.0, 0.0, 0.0, 1.740935696468179E9, 0.0, 2025-03-02 19:14:56.468
23.0, 3812.626458719547, 0.0, 0.0, 0.0, 0.0, 0.0, 0.0, 0.0, 0.08, 0.024, 0.99, 192.0, 0.0, 0.0, 0.0, 0.0, 0.0, 0.0, 0.0, 0.0, 0.0, 1.740935696468202E9, 0.0, 2025-03-02 19:14:56.468
24.0, 3784.396205472494, 0.0, 0.0, 0.0, 0.0, 0.0, 0.0, 0.0, 0.08, 0.024, 0.99, 192.0, 0.0, 0.0, 0.0, 0.0, 0.0, 0.0, 0.0, 0.0, 0.0, 1.740935696468224E9, 0.0, 2025-03-02 19:14:56.468
25.0, 3782.719824638346, 0.0, 0.0, 0.0, 0.0, 0.0, 0.0, 0.0, 0.08, 0.024, 0.99, 192.0, 0.0, 0.0, 0.0, 0.0, 0.0, 0.0, 0.0, 0.0, 0.0, 1.740935696468247E9, 0.0, 2025-03-02 19:14:56.468
26.0, 3796.242630033807, 0.0, 0.0, 0.0, 0.0, 0.0, 0.0, 0.0, 0.078, 0.022, 0.992, 192.0, 2.0, 112.0, 0.0, 176.0, 31.0, 0.0, 0.0, 0.0, 0.0, 1.74093569646827E9, 0.0, 2025-03-02 19:14:56.468
27.0, 3827.915051926977, 0.0, 0.0, 0.0, 0.0, 0.0, 0.0, 0.0, 0.078, 0.022, 0.992, 192.0, 0.0, 0.0, 0.0, 0.0, 0.0, 0.0, 0.0, 0.0, 0.0, 1.740935696468349E9, 0.0, 2025-03-02 19:14:56.468
28.0, 3809.0278278622422, 0.0, 0.0, 0.0, 0.0, 0.0, 0.0, 0.0, 0.078, 0.022, 0.992, 192.0, 0.0, 0.0, 0.0, 0.0, 0.0, 0.0, 0.0, 0.0, 0.0, 1.740935696468372E9, 0.0, 2025-03-02 19:14:56.468
29.0, 3774.6284931455248, 0.0, 0.0, 0.0, 0.0, 0.0, 0.0, 0.0, 0.078, 0.022, 0.992, 192.0, 0.0, 0.0, 0.0, 0.0, 0.0, 0.0, 0.0, 0.0, 0.0, 1.740935696468395E9, 0.0, 2025-03-02 19:14:56.468
30.0, 3770.98515879931, 0.0, 0.0, 0.0, 0.0, 0.0, 0.0, 0.0, 0.078, 0.022, 0.992, 192.0, 0.0, 0.0, 0.0, 0.0, 0.0, 0.0, 0.0, 0.0, 0.0, 1.74093569652834E9, 0.0, 2025-03-02 19:14:56.528
31.0, 3783.949170583388, 0.0, 0.0, 0.0, 0.0, 0.0, 0.0, 0.0, 0.078, 0.022, 0.992, 192.0, 0.0, 0.0, 0.0, 0.0, 0.0, 0.0, 0.0, 0.0, 0.0, 1.740935696528412E9, 0.0, 2025-03-02 19:14:56.528
32.0, 3817.521490755259, 0.0, 0.0, 0.0, 0.0, 0.0, 0.0, 0.0, 0.078, 0.022, 0.992, 192.0, 0.0, 0.0, 0.0, 0.0, 0.0, 0.0, 0.0, 0.0, 0.0, 1.740935696528458E9, 0.0, 2025-03-02 19:14:56.528
33.0, 3802.2776010367397, 0.0, 0.0, 0.0, 0.0, 0.0, 0.0, 0.0, 0.078, 0.022, 0.992, 192.0, 0.0, 0.0, 0.0, 0.0, 0.0, 0.0, 0.0, 0.0, 0.0, 1.740935696528496E9, 0.0, 2025-03-02 19:14:56.528
34.0, 3773.265036733751, 0.0, 0.0, 0.0, 0.0, 0.0, 0.0, 0.0, 0.078, 0.022, 0.992, 192.0, 0.0, 0.0, 0.0, 0.0, 0.0, 0.0, 0.0, 0.0, 0.0, 1.740935696528557E9, 0.0, 2025-03-02 19:14:56.528
35.0, 3775.3213972236395, 0.0, 0.0, 0.0, 0.0, 0.0, 0.0, 0.0, 0.078, 0.022, 0.992, 192.0, 0.0, 0.0, 0.0, 0.0, 0.0, 0.0, 0.0, 0.0, 0.0, 1.740935696528592E9, 0.0, 2025-03-02 19:14:56.528
36.0, 3790.3864729865163, 0.0, 0.0, 0.0, 0.0, 0.0, 0.0, 0.0, 0.08, 0.032, 0.996, 192.0, 2.0, 128.0, 1.0, 0.0, 31.0, 32.0, 0.0, 0.0, 0.0, 1.740935696528627E9, 0.0, 2025-03-02 19:14:56.528
37.0, 3827.199796104407, 0.0, 0.0, 0.0, 0.0, 0.0, 0.0, 0.0, 0.08, 0.032, 0.996, 192.0, 0.0, 0.0, 0.0, 0.0, 0.0, 0.0, 0.0, 0.0, 0.0, 1.74093569652867E9, 0.0, 2025-03-02 19:14:56.528
38.0, 3809.676028451446, 0.0, 0.0, 0.0, 0.0, 0.0, 0.0, 0.0, 0.08, 0.032, 0.996, 192.0, 0.0, 0.0, 0.0, 0.0, 0.0, 0.0, 0.0, 0.0, 0.0, 1.740935696528712E9, 0.0, 2025-03-02 19:14:56.528
39.0, 3779.143545525497, 0.0, 0.0, 0.0, 0.0, 0.0, 0.0, 0.0, 0.08, 0.032, 0.996, 192.0, 0.0, 0.0, 0.0, 0.0, 0.0, 0.0, 0.0, 0.0, 0.0, 1.740935696528758E9, 0.0, 2025-03-02 19:14:56.528
40.0, 3775.880190835022, 0.0, 0.0, 0.0, 0.0, 0.0, 0.0, 0.0, 0.08, 0.032, 0.996, 192.0, 0.0, 0.0, 0.0, 0.0, 0.0, 0.0, 0.0, 0.0, 0.0, 1.7409356965288E9, 0.0, 2025-03-02 19:14:56.528
41.0, 3788.7994991301894, 0.0, 0.0, 0.0, 0.0, 0.0, 0.0, 0.0, 0.08, 0.032, 0.996, 192.0, 0.0, 0.0, 0.0, 0.0, 0.0, 0.0, 0.0, 0.0, 0.0, 1.740935696528845E9, 0.0, 2025-03-02 19:14:56.528
42.0, 3821.8353774351335, 0.0, 0.0, 0.0, 0.0, 0.0, 0.0, 0.0, 0.08, 0.032, 0.996, 192.0, 0.0, 0.0, 0.0, 0.0, 0.0, 0.0, 0.0, 0.0, 0.0, 1.740935696528884E9, 0.0, 2025-03-02 19:14:56.528
43.0, 3805.853880149589, 0.0, 0.0, 0.0, 0.0, 0.0, 0.0, 0.0, 0.08, 0.032, 0.996, 192.0, 0.0, 0.0, 0.0, 0.0, 0.0, 0.0, 0.0, 0.0, 0.0, 1.74093569652892E9, 0.0, 2025-03-02 19:14:56.528
44.0, 3774.6508448899804, 0.0, 0.0, 0.0, 0.0, 0.0, 0.0, 0.0, 0.08, 0.032, 0.996, 192.0, 0.0, 0.0, 0.0, 0.0, 0.0, 0.0, 0.0, 0.0, 0.0, 1.740935696528963E9, 0.0, 2025-03-02 19:14:56.528
45.0, 3775.4108042014605, 0.0, 0.0, 0.0, 0.0, 0.0, 0.0, 0.0, 0.09, 0.03, 1.018, 192.0, 2.0, 208.0, 0.0, 240.0, 31.0, 208.0, 0.0, 0.0, 0.0, 1.740935696588558E9, 0.0, 2025-03-02 19:14:56.588
46.0, 3789.6488654194914, 0.0, 0.0, 0.0, 0.0, 0.0, 0.0, 0.0, 0.09, 0.03, 1.018, 192.0, 0.0, 0.0, 0.0, 0.0, 0.0, 0.0, 0.0, 0.0, 0.0, 1.74093569658861E9, 0.0, 2025-03-02 19:14:56.588
47.0, 3821.678915223946, 0.0, 0.0, 0.0, 0.0, 0.0, 0.0, 0.0, 0.09, 0.03, 1.018, 192.0, 0.0, 0.0, 0.0, 0.0, 0.0, 0.0, 0.0, 0.0, 0.0, 1.740935696588637E9, 0.0, 2025-03-02 19:14:56.588
48.0, 3805.9656388718654, 0.0, 0.0, 0.0, 0.0, 0.0, 0.0, 0.0, 0.09, 0.03, 1.018, 192.0, 0.0, 0.0, 0.0, 0.0, 0.0, 0.0, 0.0, 0.0, 0.0, 1.740935696588662E9, 0.0, 2025-03-02 19:14:56.588
49.0, 3774.6284931455248, 0.0, 0.0, 0.0, 0.0, 0.0, 0.0, 0.0, 0.09, 0.03, 1.018, 192.0, 0.0, 0.0, 0.0, 0.0, 0.0, 0.0, 0.0, 0.0, 0.0, 1.740935696588686E9, 0.0, 2025-03-02 19:14:56.588
50.0, 3772.974464055832, 0.0, 0.0, 0.0, 0.0, 0.0, 0.0, 0.0, 0.09, 0.03, 1.018, 192.0, 0.0, 0.0, 0.0, 0.0, 0.0, 0.0, 0.0, 0.0, 0.0, 1.74093569658871E9, 0.0, 2025-03-02 19:14:56.588
51.0, 3788.486574707815, 0.0, 0.0, 0.0, 0.0, 0.0, 0.0, 0.0, 0.09, 0.03, 1.018, 192.0, 0.0, 0.0, 0.0, 0.0, 0.0, 0.0, 0.0, 0.0, 0.0, 1.740935696588734E9, 0.0, 2025-03-02 19:14:56.588
52.0, 3821.0307146347423, 0.0, 0.0, 0.0, 0.0, 0.0, 0.0, 0.0, 0.09, 0.03, 1.018, 192.0, 0.0, 0.0, 0.0, 0.0, 0.0, 0.0, 0.0, 0.0, 0.0, 1.740935696588759E9, 0.0, 2025-03-02 19:14:56.588
53.0, 3802.746987670301, 0.0, 0.0, 0.0, 0.0, 0.0, 0.0, 0.0, 0.09, 0.03, 1.018, 192.0, 0.0, 0.0, 0.0, 0.0, 0.0, 0.0, 0.0, 0.0, 0.0, 1.740935696588783E9, 0.0, 2025-03-02 19:14:56.588
54.0, 3772.4380221889046, 0.0, 0.0, 0.0, 0.0, 0.0, 0.0, 0.0, 0.09, 0.03, 1.018, 192.0, 0.0, 0.0, 0.0, 0.0, 0.0, 0.0, 0.0, 0.0, 0.0, 1.740935696588807E9, 0.0, 2025-03-02 19:14:56.588
55.0, 3768.8393913316004, 0.0, 0.0, 0.0, 0.0, 0.0, 0.0, 0.0, 0.084, 0.042, 0.972, 192.0, 2.0, 160.0, 1.0, 80.0, 30.0, 96.0, 0.0, 0.0, 0.0, 1.740935696588831E9, 0.0, 2025-03-02 19:14:56.588
56.0, 3783.4350804609157, 0.0, 0.0, 0.0, 0.0, 0.0, 0.0, 0.0, 0.084, 0.042, 0.972, 192.0, 0.0, 0.0, 0.0, 0.0, 0.0, 0.0, 0.0, 0.0, 0.0, 1.740935696588858E9, 0.0, 2025-03-02 19:14:56.588
57.0, 3822.4165227909716, 0.0, 0.0, 0.0, 0.0, 0.0, 0.0, 0.0, 0.084, 0.042, 0.972, 192.0, 0.0, 0.0, 0.0, 0.0, 0.0, 0.0, 0.0, 0.0, 0.0, 1.740935696588882E9, 0.0, 2025-03-02 19:14:56.588
58.0, 3803.3728365150496, 0.0, 0.0, 0.0, 0.0, 0.0, 0.0, 0.0, 0.084, 0.042, 0.972, 192.0, 0.0, 0.0, 0.0, 0.0, 0.0, 0.0, 0.0, 0.0, 0.0, 1.740935696588906E9, 0.0, 2025-03-02 19:14:56.588
59.0, 3769.4652401763487, 0.0, 0.0, 0.0, 0.0, 0.0, 0.0, 0.0, 0.084, 0.042, 0.972, 192.0, 0.0, 0.0, 0.0, 0.0, 0.0, 0.0, 0.0, 0.0, 0.0, 1.740935696588931E9, 0.0, 2025-03-02 19:14:56.588
60.0, 3768.4370599314047, 0.0, 0.0, 0.0, 0.0, 0.0, 0.0, 0.0, 0.084, 0.042, 0.972, 192.0, 0.0, 0.0, 0.0, 0.0, 0.0, 0.0, 0.0, 0.0, 0.0, 1.740935696648111E9, 0.0, 2025-03-02 19:14:56.648
61.0, 3784.887943850511, 0.0, 0.0, 0.0, 0.0, 0.0, 0.0, 0.0, 0.084, 0.042, 0.972, 192.0, 0.0, 0.0, 0.0, 0.0, 0.0, 0.0, 0.0, 0.0, 0.0, 1.740935696648192E9, 0.0, 2025-03-02 19:14:56.648
62.0, 3818.750836700301, 0.0, 0.0, 0.0, 0.0, 0.0, 0.0, 0.0, 0.084, 0.042, 0.972, 192.0, 0.0, 0.0, 0.0, 0.0, 0.0, 0.0, 0.0, 0.0, 0.0, 1.740935696648273E9, 0.0, 2025-03-02 19:14:56.648
63.0, 3799.550688213192, 0.0, 0.0, 0.0, 0.0, 0.0, 0.0, 0.0, 0.084, 0.042, 0.972, 192.0, 0.0, 0.0, 0.0, 0.0, 0.0, 0.0, 0.0, 0.0, 0.0, 1.740935696648299E9, 0.0, 2025-03-02 19:14:56.648
64.0, 3770.3816616990166, 0.0, 0.0, 0.0, 0.0, 0.0, 0.0, 0.0, 0.084, 0.042, 0.972, 192.0, 0.0, 0.0, 0.0, 0.0, 0.0, 0.0, 0.0, 0.0, 0.0, 1.740935696648323E9, 0.0, 2025-03-02 19:14:56.648
65.0, 3771.5439524106923, 0.0, 0.0, 0.0, 0.0, 0.0, 0.0, 0.0, 0.078, 0.032, 1.002, 192.0, 2.0, 112.0, 1.0, 0.0, 31.0, 80.0, 0.0, 0.0, 0.0, 1.740935696648348E9, 0.0, 2025-03-02 19:14:56.648
66.0, 3783.4350804609157, 0.0, 0.0, 0.0, 0.0, 0.0, 0.0, 0.0, 0.078, 0.032, 1.002, 192.0, 0.0, 0.0, 0.0, 0.0, 0.0, 0.0, 0.0, 0.0, 0.0, 1.740935696648374E9, 0.0, 2025-03-02 19:14:56.648
67.0, 3818.3038018111947, 0.0, 0.0, 0.0, 0.0, 0.0, 0.0, 0.0, 0.078, 0.032, 1.002, 192.0, 0.0, 0.0, 0.0, 0.0, 0.0, 0.0, 0.0, 0.0, 0.0, 1.740935696648398E9, 0.0, 2025-03-02 19:14:56.648
68.0, 3799.573039957648, 0.0, 0.0, 0.0, 0.0, 0.0, 0.0, 0.0, 0.078, 0.032, 1.002, 192.0, 0.0, 0.0, 0.0, 0.0, 0.0, 0.0, 0.0, 0.0, 0.0, 1.740935696648422E9, 0.0, 2025-03-02 19:14:56.648
69.0, 3769.7334611098127, 0.0, 0.0, 0.0, 0.0, 0.0, 0.0, 0.0, 0.078, 0.032, 1.002, 192.0, 0.0, 0.0, 0.0, 0.0, 0.0, 0.0, 0.0, 0.0, 0.0, 1.740935696648446E9, 0.0, 2025-03-02 19:14:56.648
70.0, 3768.7723360982345, 0.0, 0.0, 0.0, 0.0, 0.0, 0.0, 0.0, 0.078, 0.032, 1.002, 192.0, 0.0, 0.0, 0.0, 0.0, 0.0, 0.0, 0.0, 0.0, 0.0, 1.74093569664847E9, 0.0, 2025-03-02 19:14:56.648
71.0, 3783.613894416558, 0.0, 0.0, 0.0, 0.0, 0.0, 0.0, 0.0, 0.078, 0.032, 1.002, 192.0, 0.0, 0.0, 0.0, 0.0, 0.0, 0.0, 0.0, 0.0, 0.0, 1.740935696648494E9, 0.0, 2025-03-02 19:14:56.648
72.0, 3818.1920430889186, 0.0, 0.0, 0.0, 0.0, 0.0, 0.0, 0.0, 0.078, 0.032, 1.002, 192.0, 0.0, 0.0, 0.0, 0.0, 0.0, 0.0, 0.0, 0.0, 0.0, 1.740935696648532E9, 0.0, 2025-03-02 19:14:56.648
73.0, 3800.3777027580386, 0.0, 0.0, 0.0, 0.0, 0.0, 0.0, 0.0, 0.078, 0.032, 1.002, 192.0, 0.0, 0.0, 0.0, 0.0, 0.0, 0.0, 0.0, 0.0, 0.0, 1.740935696648557E9, 0.0, 2025-03-02 19:14:56.648
74.0, 3768.370004698039, 0.0, 0.0, 0.0, 0.0, 0.0, 0.0, 0.0, 0.078, 0.032, 1.002, 192.0, 0.0, 0.0, 0.0, 0.0, 0.0, 0.0, 0.0, 0.0, 0.0, 1.740935696648581E9, 0.0, 2025-03-02 19:14:56.648
75.0, 3766.626568630525, 0.0, 0.0, 0.0, 0.0, 0.0, 0.0, 0.0, 0.09, 0.032, 0.982, 192.0, 2.0, 208.0, 1.0, 0.0, 30.0, 176.0, 0.0, 0.0, 0.0, 1.740935696707748E9, 0.0, 2025-03-02 19:14:56.707
76.0, 3777.9589030693655, 0.0, 0.0, 0.0, 0.0, 0.0, 0.0, 0.0, 0.09, 0.032, 0.982, 192.0, 0.0, 0.0, 0.0, 0.0, 0.0, 0.0, 0.0, 0.0, 0.0, 1.740935696707802E9, 0.0, 2025-03-02 19:14:56.707
77.0, 3810.9947813743097, 0.0, 0.0, 0.0, 0.0, 0.0, 0.0, 0.0, 0.09, 0.032, 0.982, 192.0, 0.0, 0.0, 0.0, 0.0, 0.0, 0.0, 0.0, 0.0, 0.0, 1.740935696707829E9, 0.0, 2025-03-02 19:14:56.707
78.0, 3794.9015253664884, 0.0, 0.0, 0.0, 0.0, 0.0, 0.0, 0.0, 0.09, 0.032, 0.982, 192.0, 0.0, 0.0, 0.0, 0.0, 0.0, 0.0, 0.0, 0.0, 0.0, 1.740935696707853E9, 0.0, 2025-03-02 19:14:56.707
79.0, 3762.6479581174804, 0.0, 0.0, 0.0, 0.0, 0.0, 0.0, 0.0, 0.09, 0.032, 0.982, 192.0, 0.0, 0.0, 0.0, 0.0, 0.0, 0.0, 0.0, 0.0, 0.0, 1.740935696707877E9, 0.0, 2025-03-02 19:14:56.707
80.0, 3763.117344751042, 0.0, 0.0, 0.0, 0.0, 0.0, 0.0, 0.0, 0.09, 0.032, 0.982, 192.0, 0.0, 0.0, 0.0, 0.0, 0.0, 0.0, 0.0, 0.0, 0.0, 1.740935696707951E9, 0.0, 2025-03-02 19:14:56.707
81.0, 3781.311664737662, 0.0, 0.0, 0.0, 0.0, 0.0, 0.0, 0.0, 0.09, 0.032, 0.982, 192.0, 0.0, 0.0, 0.0, 0.0, 0.0, 0.0, 0.0, 0.0, 0.0, 1.740935696707976E9, 0.0, 2025-03-02 19:14:56.707
82.0, 3814.4145982759715, 0.0, 0.0, 0.0, 0.0, 0.0, 0.0, 0.0, 0.09, 0.032, 0.982, 192.0, 0.0, 0.0, 0.0, 0.0, 0.0, 0.0, 0.0, 0.0, 0.0, 1.740935696708E9, 0.0, 2025-03-02 19:14:56.708
83.0, 3798.924839368444, 0.0, 0.0, 0.0, 0.0, 0.0, 0.0, 0.0, 0.09, 0.032, 0.982, 192.0, 0.0, 0.0, 0.0, 0.0, 0.0, 0.0, 0.0, 0.0, 0.0, 1.740935696708024E9, 0.0, 2025-03-02 19:14:56.708
84.0, 3766.715975608346, 0.0, 0.0, 0.0, 0.0, 0.0, 0.0, 0.0, 0.09, 0.032, 0.982, 192.0, 0.0, 0.0, 0.0, 0.0, 0.0, 0.0, 0.0, 0.0, 0.0, 1.740935696708048E9, 0.0, 2025-03-02 19:14:56.708
85.0, 3764.749022096279, 0.0, 0.0, 0.0, 0.0, 0.0, 0.0, 0.0, 0.074, 0.038, 0.99, 192.0, 2.0, 80.0, 1.0, 48.0, 30.0, 240.0, 0.0, 0.0, 0.0, 1.740935696708072E9, 0.0, 2025-03-02 19:14:56.708
86.0, 3777.422461202438, 0.0, 0.0, 0.0, 0.0, 0.0, 0.0, 0.0, 0.074, 0.038, 0.99, 192.0, 0.0, 0.0, 0.0, 0.0, 0.0, 0.0, 0.0, 0.0, 0.0, 1.740935696708098E9, 0.0, 2025-03-02 19:14:56.708
87.0, 3810.8383191631224, 0.0, 0.0, 0.0, 0.0, 0.0, 0.0, 0.0, 0.074, 0.038, 0.99, 192.0, 0.0, 0.0, 0.0, 0.0, 0.0, 0.0, 0.0, 0.0, 0.0, 1.740935696708122E9, 0.0, 2025-03-02 19:14:56.708
88.0, 3794.5438974552035, 0.0, 0.0, 0.0, 0.0, 0.0, 0.0, 0.0, 0.074, 0.038, 0.99, 192.0, 0.0, 0.0, 0.0, 0.0, 0.0, 0.0, 0.0, 0.0, 0.0, 1.740935696708146E9, 0.0, 2025-03-02 19:14:56.708
89.0, 3761.5080191502598, 0.0, 0.0, 0.0, 0.0, 0.0, 0.0, 0.0, 0.074, 0.038, 0.99, 192.0, 0.0, 0.0, 0.0, 0.0, 0.0, 0.0, 0.0, 0.0, 0.0, 1.74093569670817E9, 0.0, 2025-03-02 19:14:56.708
90.0, 3760.8374668166, 0.0, 0.0, 0.0, 0.0, 0.0, 0.0, 0.0, 0.074, 0.038, 0.99, 192.0, 0.0, 0.0, 0.0, 0.0, 0.0, 0.0, 0.0, 0.0, 0.0, 1.740935696767972E9, 0.0, 2025-03-02 19:14:56.767
91.0, 3776.394280957494, 0.0, 0.0, 0.0, 0.0, 0.0, 0.0, 0.0, 0.074, 0.038, 0.99, 192.0, 0.0, 0.0, 0.0, 0.0, 0.0, 0.0, 0.0, 0.0, 0.0, 1.740935696768038E9, 0.0, 2025-03-02 19:14:56.768
92.0, 3810.8383191631224, 0.0, 0.0, 0.0, 0.0, 0.0, 0.0, 0.0, 0.074, 0.038, 0.99, 192.0, 0.0, 0.0, 0.0, 0.0, 0.0, 0.0, 0.0, 0.0, 0.0, 1.740935696768081E9, 0.0, 2025-03-02 19:14:56.768
93.0, 3795.236801533318, 0.0, 0.0, 0.0, 0.0, 0.0, 0.0, 0.0, 0.074, 0.038, 0.99, 192.0, 0.0, 0.0, 0.0, 0.0, 0.0, 0.0, 0.0, 0.0, 0.0, 1.740935696768131E9, 0.0, 2025-03-02 19:14:56.768
94.0, 3762.111516250553, 0.0, 0.0, 0.0, 0.0, 0.0, 0.0, 0.0, 0.076, 0.032, 0.994, 192.0, 2.0, 96.0, 1.0, 0.0, 31.0, 16.0, 0.0, 0.0, 0.0, 1.740935696768174E9, 0.0, 2025-03-02 19:14:56.768
95.0, 3762.6703098619355, 0.0, 0.0, 0.0, 0.0, 0.0, 0.0, 0.0, 0.076, 0.032, 0.994, 192.0, 0.0, 0.0, 0.0, 0.0, 0.0, 0.0, 0.0, 0.0, 0.0, 1.740935696768209E9, 0.0, 2025-03-02 19:14:56.768
96.0, 3774.2932169786955, 0.0, 0.0, 0.0, 0.0, 0.0, 0.0, 0.0, 0.076, 0.032, 0.994, 192.0, 0.0, 0.0, 0.0, 0.0, 0.0, 0.0, 0.0, 0.0, 0.0, 1.74093569676824E9, 0.0, 2025-03-02 19:14:56.768
97.0, 3808.4466825064046, 0.0, 0.0, 0.0, 0.0, 0.0, 0.0, 0.0, 0.076, 0.032, 0.994, 192.0, 0.0, 0.0, 0.0, 0.0, 0.0, 0.0, 0.0, 0.0, 0.0, 1.740935696768272E9, 0.0, 2025-03-02 19:14:56.768
98.0, 3795.2815050222284, 0.0, 0.0, 0.0, 0.0, 0.0, 0.0, 0.0, 0.076, 0.032, 0.994, 192.0, 0.0, 0.0, 0.0, 0.0, 0.0, 0.0, 0.0, 0.0, 0.0, 1.740935696768374E9, 0.0, 2025-03-02 19:14:56.768
99.0, 3762.826772073123, 0.0, 0.0, 0.0, 0.0, 0.0, 0.0, 0.0, 0.076, 0.032, 0.994, 192.0, 0.0, 0.0, 0.0, 0.0, 0.0, 0.0, 0.0, 0.0, 0.0, 1.740935696768432E9, 0.0, 2025-03-02 19:14:56.768
100.0, 3760.3233766941285, 0.0, 0.0, 0.0, 0.0, 0.0, 0.0, 0.0, 0.076, 0.032, 0.994, 192.0, 0.0, 0.0, 0.0, 0.0, 0.0, 0.0, 0.0, 0.0, 0.0, 1.740935696768477E9, 0.0, 2025-03-02 19:14:56.768
101.0, 3772.9297605669217, 0.0, 0.0, 0.0, 0.0, 0.0, 0.0, 0.0, 0.076, 0.032, 0.994, 192.0, 0.0, 0.0, 0.0, 0.0, 0.0, 0.0, 0.0, 0.0, 0.0, 1.74093569676854E9, 0.0, 2025-03-02 19:14:56.768
102.0, 3809.1619383289744, 0.0, 0.0, 0.0, 0.0, 0.0, 0.0, 0.0, 0.076, 0.032, 0.994, 192.0, 0.0, 0.0, 0.0, 0.0, 0.0, 0.0, 0.0, 0.0, 0.0, 1.740935696768585E9, 0.0, 2025-03-02 19:14:56.768
103.0, 3799.215412046363, 0.0, 0.0, 0.0, 0.0, 0.0, 0.0, 0.0, 0.076, 0.032, 0.994, 192.0, 0.0, 0.0, 0.0, 0.0, 0.0, 0.0, 0.0, 0.0, 0.0, 1.740935696768609E9, 0.0, 2025-03-02 19:14:56.768
104.0, 3768.325301209128, 0.0, 0.0, 0.0, 0.0, 0.0, 0.0, 0.0, 0.09, 0.026000000000000002, 0.99, 192.0, 2.0, 208.0, 0.0, 208.0, 30.0, 240.0, 0.0, 0.0, 0.0, 1.740935696768632E9, 0.0, 2025-03-02 19:14:56.768
105.0, 3764.659615118458, 0.0, 0.0, 0.0, 0.0, 0.0, 0.0, 0.0, 0.09, 0.026000000000000002, 0.99, 192.0, 0.0, 0.0, 0.0, 0.0, 0.0, 0.0, 0.0, 0.0, 0.0, 1.740935696828216E9, 0.0, 2025-03-02 19:14:56.828
106.0, 3774.784955356712, 0.0, 0.0, 0.0, 0.0, 0.0, 0.0, 0.0, 0.09, 0.026000000000000002, 0.99, 192.0, 0.0, 0.0, 0.0, 0.0, 0.0, 0.0, 0.0, 0.0, 0.0, 1.740935696828263E9, 0.0, 2025-03-02 19:14:56.828
107.0, 3808.983124373332, 0.0, 0.0, 0.0, 0.0, 0.0, 0.0, 0.0, 0.09, 0.026000000000000002, 0.99, 192.0, 0.0, 0.0, 0.0, 0.0, 0.0, 0.0, 0.0, 0.0, 0.0, 1.740935696828288E9, 0.0, 2025-03-02 19:14:56.828
108.0, 3793.269848021251, 0.0, 0.0, 0.0, 0.0, 0.0, 0.0, 0.0, 0.09, 0.026000000000000002, 0.99, 192.0, 0.0, 0.0, 0.0, 0.0, 0.0, 0.0, 0.0, 0.0, 0.0, 1.740935696828311E9, 0.0, 2025-03-02 19:14:56.828
109.0, 3758.5799406266146, 0.0, 0.0, 0.0, 0.0, 0.0, 0.0, 0.0, 0.09, 0.026000000000000002, 0.99, 192.0, 0.0, 0.0, 0.0, 0.0, 0.0, 0.0, 0.0, 0.0, 0.0, 1.740935696828334E9, 0.0, 2025-03-02 19:14:56.828
110.0, 3756.858856303556, 0.0, 0.0, 0.0, 0.0, 0.0, 0.0, 0.0, 0.09, 0.026000000000000002, 0.99, 192.0, 0.0, 0.0, 0.0, 0.0, 0.0, 0.0, 0.0, 0.0, 0.0, 1.740935696828356E9, 0.0, 2025-03-02 19:14:56.828
111.0, 3771.007510543765, 0.0, 0.0, 0.0, 0.0, 0.0, 0.0, 0.0, 0.09, 0.026000000000000002, 0.99, 192.0, 0.0, 0.0, 0.0, 0.0, 0.0, 0.0, 0.0, 0.0, 0.0, 1.740935696828379E9, 0.0, 2025-03-02 19:14:56.828
112.0, 3807.2396883058177, 0.0, 0.0, 0.0, 0.0, 0.0, 0.0, 0.0, 0.09, 0.026000000000000002, 0.99, 192.0, 0.0, 0.0, 0.0, 0.0, 0.0, 0.0, 0.0, 0.0, 0.0, 1.740935696828402E9, 0.0, 2025-03-02 19:14:56.828
113.0, 3794.2309730328293, 0.0, 0.0, 0.0, 0.0, 0.0, 0.0, 0.0, 0.09, 0.026000000000000002, 0.99, 192.0, 0.0, 0.0, 0.0, 0.0, 0.0, 0.0, 0.0, 0.0, 0.0, 1.740935696828424E9, 0.0, 2025-03-02 19:14:56.828
114.0, 3759.6975278493796, 0.0, 0.0, 0.0, 0.0, 0.0, 0.0, 0.0, 0.074, 0.03, 0.994, 192.0, 2.0, 80.0, 0.0, 240.0, 31.0, 16.0, 0.0, 0.0, 0.0, 1.740935696828447E9, 0.0, 2025-03-02 19:14:56.828
115.0, 3756.8141528146452, 0.0, 0.0, 0.0, 0.0, 0.0, 0.0, 0.0, 0.074, 0.03, 0.994, 192.0, 0.0, 0.0, 0.0, 0.0, 0.0, 0.0, 0.0, 0.0, 0.0, 1.740935696828557E9, 0.0, 2025-03-02 19:14:56.828
116.0, 3769.4205366874385, 0.0, 0.0, 0.0, 0.0, 0.0, 0.0, 0.0, 0.074, 0.03, 0.994, 192.0, 0.0, 0.0, 0.0, 0.0, 0.0, 0.0, 0.0, 0.0, 0.0, 1.740935696828582E9, 0.0, 2025-03-02 19:14:56.828
117.0, 3804.0880923376194, 0.0, 0.0, 0.0, 0.0, 0.0, 0.0, 0.0, 0.074, 0.03, 0.994, 192.0, 0.0, 0.0, 0.0, 0.0, 0.0, 0.0, 0.0, 0.0, 0.0, 1.740935696828618E9, 0.0, 2025-03-02 19:14:56.828
118.0, 3791.8393363761115, 0.0, 0.0, 0.0, 0.0, 0.0, 0.0, 0.0, 0.074, 0.03, 0.994, 192.0, 0.0, 0.0, 0.0, 0.0, 0.0, 0.0, 0.0, 0.0, 0.0, 1.74093569682866E9, 0.0, 2025-03-02 19:14:56.828
119.0, 3758.244664459785, 0.0, 0.0, 0.0, 0.0, 0.0, 0.0, 0.0, 0.074, 0.03, 0.994, 192.0, 0.0, 0.0, 0.0, 0.0, 0.0, 0.0, 0.0, 0.0, 0.0, 1.7409356968287E9, 0.0, 2025-03-02 19:14:56.828
120.0, 3755.4059929139607, 0.0, 0.0, 0.0, 0.0, 0.0, 0.0, 0.0, 0.074, 0.03, 0.994, 192.0, 0.0, 0.0, 0.0, 0.0, 0.0, 0.0, 0.0, 0.0, 0.0, 1.740935696888602E9, 0.0, 2025-03-02 19:14:56.888
121.0, 3770.0910890210976, 0.0, 0.0, 0.0, 0.0, 0.0, 0.0, 0.0, 0.074, 0.03, 0.994, 192.0, 0.0, 0.0, 0.0, 0.0, 0.0, 0.0, 0.0, 0.0, 0.0, 1.740935696888666E9, 0.0, 2025-03-02 19:14:56.888
122.0, 3803.2163743038627, 0.0, 0.0, 0.0, 0.0, 0.0, 0.0, 0.0, 0.074, 0.03, 0.994, 192.0, 0.0, 0.0, 0.0, 0.0, 0.0, 0.0, 0.0, 0.0, 0.0, 1.740935696888704E9, 0.0, 2025-03-02 19:14:56.888
123.0, 3793.5827724436253, 0.0, 0.0, 0.0, 0.0, 0.0, 0.0, 0.0, 0.074, 0.03, 0.994, 192.0, 0.0, 0.0, 0.0, 0.0, 0.0, 0.0, 0.0, 0.0, 0.0, 1.740935696888728E9, 0.0, 2025-03-02 19:14:56.888
124.0, 3763.4749726623268, 0.0, 0.0, 0.0, 0.0, 0.0, 0.0, 0.0, 0.08, 0.028, 0.982, 192.0, 2.0, 128.0, 0.0, 224.0, 30.0, 176.0, 0.0, 0.0, 0.0, 1.740935696888752E9, 0.0, 2025-03-02 19:14:56.888
125.0, 3758.244664459785, 0.0, 0.0, 0.0, 0.0, 0.0, 0.0, 0.0, 0.08, 0.028, 0.982, 192.0, 0.0, 0.0, 0.0, 0.0, 0.0, 0.0, 0.0, 0.0, 0.0, 1.740935696888777E9, 0.0, 2025-03-02 19:14:56.888
126.0, 3770.202847743374, 0.0, 0.0, 0.0, 0.0, 0.0, 0.0, 0.0, 0.08, 0.028, 0.982, 192.0, 0.0, 0.0, 0.0, 0.0, 0.0, 0.0, 0.0, 0.0, 0.0, 1.7409356968888E9, 0.0, 2025-03-02 19:14:56.888
127.0, 3807.6420197060133, 0.0, 0.0, 0.0, 0.0, 0.0, 0.0, 0.0, 0.08, 0.028, 0.982, 192.0, 0.0, 0.0, 0.0, 0.0, 0.0, 0.0, 0.0, 0.0, 0.0, 1.740935696888823E9, 0.0, 2025-03-02 19:14:56.888
128.0, 3795.2815050222284, 0.0, 0.0, 0.0, 0.0, 0.0, 0.0, 0.0, 0.08, 0.028, 0.982, 192.0, 0.0, 0.0, 0.0, 0.0, 0.0, 0.0, 0.0, 0.0, 0.0, 1.740935696888845E9, 0.0, 2025-03-02 19:14:56.888
129.0, 3758.6693476044356, 0.0, 0.0, 0.0, 0.0, 0.0, 0.0, 0.0, 0.08, 0.028, 0.982, 192.0, 0.0, 0.0, 0.0, 0.0, 0.0, 0.0, 0.0, 0.0, 0.0, 1.740935696888868E9, 0.0, 2025-03-02 19:14:56.888
130.0, 3758.1329057375083, 0.0, 0.0, 0.0, 0.0, 0.0, 0.0, 0.0, 0.08, 0.028, 0.982, 192.0, 0.0, 0.0, 0.0, 0.0, 0.0, 0.0, 0.0, 0.0, 0.0, 1.740935696888891E9, 0.0, 2025-03-02 19:14:56.888
131.0, 3774.27086523424, 0.0, 0.0, 0.0, 0.0, 0.0, 0.0, 0.0, 0.08, 0.028, 0.982, 192.0, 0.0, 0.0, 0.0, 0.0, 0.0, 0.0, 0.0, 0.0, 0.0, 1.740935696888914E9, 0.0, 2025-03-02 19:14:56.888
132.0, 3809.340752284617, 0.0, 0.0, 0.0, 0.0, 0.0, 0.0, 0.0, 0.08, 0.028, 0.982, 192.0, 0.0, 0.0, 0.0, 0.0, 0.0, 0.0, 0.0, 0.0, 0.0, 1.740935696888956E9, 0.0, 2025-03-02 19:14:56.888
133.0, 3793.8286416326337, 0.0, 0.0, 0.0, 0.0, 0.0, 0.0, 0.0, 0.08, 0.028, 0.982, 192.0, 0.0, 0.0, 0.0, 0.0, 0.0, 0.0, 0.0, 0.0, 0.0, 1.740935696889062E9, 0.0, 2025-03-02 19:14:56.889
134.0, 3764.45844941836, 0.0, 0.0, 0.0, 0.0, 0.0, 0.0, 0.0, 0.07, 0.03, 0.99, 192.0, 2.0, 48.0, 0.0, 240.0, 30.0, 240.0, 0.0, 0.0, 0.0, 1.740935696889087E9, 0.0, 2025-03-02 19:14:56.889
135.0, 3765.821905830134, 0.0, 0.0, 0.0, 0.0, 0.0, 0.0, 0.0, 0.07, 0.03, 0.99, 192.0, 0.0, 0.0, 0.0, 0.0, 0.0, 0.0, 0.0, 0.0, 0.0, 1.740935696948112E9, 0.0, 2025-03-02 19:14:56.948
136.0, 3777.198943757885, 0.0, 0.0, 0.0, 0.0, 0.0, 0.0, 0.0, 0.07, 0.03, 0.99, 192.0, 0.0, 0.0, 0.0, 0.0, 0.0, 0.0, 0.0, 0.0, 0.0, 1.740935696948169E9, 0.0, 2025-03-02 19:14:56.948
137.0, 3809.988952873821, 0.0, 0.0, 0.0, 0.0, 0.0, 0.0, 0.0, 0.07, 0.03, 0.99, 192.0, 0.0, 0.0, 0.0, 0.0, 0.0, 0.0, 0.0, 0.0, 0.0, 1.740935696948195E9, 0.0, 2025-03-02 19:14:56.948
138.0, 3798.4554527348823, 0.0, 0.0, 0.0, 0.0, 0.0, 0.0, 0.0, 0.07, 0.03, 0.99, 192.0, 0.0, 0.0, 0.0, 0.0, 0.0, 0.0, 0.0, 0.0, 0.0, 1.740935696948218E9, 0.0, 2025-03-02 19:14:56.948
139.0, 3765.2854639632064, 0.0, 0.0, 0.0, 0.0, 0.0, 0.0, 0.0, 0.07, 0.03, 0.99, 192.0, 0.0, 0.0, 0.0, 0.0, 0.0, 0.0, 0.0, 0.0, 0.0, 1.740935696948241E9, 0.0, 2025-03-02 19:14:56.948
140.0, 3762.178571483919, 0.0, 0.0, 0.0, 0.0, 0.0, 0.0, 0.0, 0.07, 0.03, 0.99, 192.0, 0.0, 0.0, 0.0, 0.0, 0.0, 0.0, 0.0, 0.0, 0.0, 1.740935696948264E9, 0.0, 2025-03-02 19:14:56.948
141.0, 3777.9365513249104, 0.0, 0.0, 0.0, 0.0, 0.0, 0.0, 0.0, 0.07, 0.03, 0.99, 192.0, 0.0, 0.0, 0.0, 0.0, 0.0, 0.0, 0.0, 0.0, 0.0, 1.740935696948287E9, 0.0, 2025-03-02 19:14:56.948
142.0, 3812.559403486181, 0.0, 0.0, 0.0, 0.0, 0.0, 0.0, 0.0, 0.07, 0.03, 0.99, 192.0, 0.0, 0.0, 0.0, 0.0, 0.0, 0.0, 0.0, 0.0, 0.0, 1.74093569694831E9, 0.0, 2025-03-02 19:14:56.948
143.0, 3802.1881940589187, 0.0, 0.0, 0.0, 0.0, 0.0, 0.0, 0.0, 0.078, 0.034, 0.988, 192.0, 2.0, 112.0, 1.0, 16.0, 30.0, 224.0, 0.0, 0.0, 0.0, 1.740935696948333E9, 0.0, 2025-03-02 19:14:56.948
144.0, 3770.538123910204, 0.0, 0.0, 0.0, 0.0, 0.0, 0.0, 0.0, 0.078, 0.034, 0.988, 192.0, 0.0, 0.0, 0.0, 0.0, 0.0, 0.0, 0.0, 0.0, 0.0, 1.740935696948357E9, 0.0, 2025-03-02 19:14:56.948
145.0, 3770.8063448436674, 0.0, 0.0, 0.0, 0.0, 0.0, 0.0, 0.0, 0.078, 0.034, 0.988, 192.0, 0.0, 0.0, 0.0, 0.0, 0.0, 0.0, 0.0, 0.0, 0.0, 1.74093569694838E9, 0.0, 2025-03-02 19:14:56.948
146.0, 3782.697472893891, 0.0, 0.0, 0.0, 0.0, 0.0, 0.0, 0.0, 0.078, 0.034, 0.988, 192.0, 0.0, 0.0, 0.0, 0.0, 0.0, 0.0, 0.0, 0.0, 0.0, 1.740935696948403E9, 0.0, 2025-03-02 19:14:56.948
147.0, 3820.1813483454407, 0.0, 0.0, 0.0, 0.0, 0.0, 0.0, 0.0, 0.078, 0.034, 0.988, 192.0, 0.0, 0.0, 0.0, 0.0, 0.0, 0.0, 0.0, 0.0, 0.0, 1.740935696948426E9, 0.0, 2025-03-02 19:14:56.948
148.0, 3806.792653416712, 0.0, 0.0, 0.0, 0.0, 0.0, 0.0, 0.0, 0.078, 0.034, 0.988, 192.0, 0.0, 0.0, 0.0, 0.0, 0.0, 0.0, 0.0, 0.0, 0.0, 1.740935696948448E9, 0.0, 2025-03-02 19:14:56.948
149.0, 3772.3709669555387, 0.0, 0.0, 0.0, 0.0, 0.0, 0.0, 0.0, 0.078, 0.034, 0.988, 192.0, 0.0, 0.0, 0.0, 0.0, 0.0, 0.0, 0.0, 0.0, 0.0, 1.740935696948471E9, 0.0, 2025-03-02 19:14:56.948
150.0, 3771.0969175215864, 0.0, 0.0, 0.0, 0.0, 0.0, 0.0, 0.0, 0.078, 0.034, 0.988, 192.0, 0.0, 0.0, 0.0, 0.0, 0.0, 0.0, 0.0, 0.0, 0.0, 1.740935697007763E9, 0.0, 2025-03-02 19:14:57.007
151.0, 3782.5410106827035, 0.0, 0.0, 0.0, 0.0, 0.0, 0.0, 0.0, 0.078, 0.034, 0.988, 192.0, 0.0, 0.0, 0.0, 0.0, 0.0, 0.0, 0.0, 0.0, 0.0, 1.740935697007829E9, 0.0, 2025-03-02 19:14:57.007
152.0, 3820.3154588121724, 0.0, 0.0, 0.0, 0.0, 0.0, 0.0, 0.0, 0.078, 0.034, 0.988, 192.0, 0.0, 0.0, 0.0, 0.0, 0.0, 0.0, 0.0, 0.0, 0.0, 1.740935697007857E9, 0.0, 2025-03-02 19:14:57.007
153.0, 3810.1454150850077, 0.0, 0.0, 0.0, 0.0, 0.0, 0.0, 0.0, 0.08, 0.03, 0.986, 192.0, 2.0, 128.0, 0.0, 240.0, 30.0, 208.0, 0.0, 0.0, 0.0, 1.740935697007882E9, 0.0, 2025-03-02 19:14:57.007
154.0, 3775.2766937347287, 0.0, 0.0, 0.0, 0.0, 0.0, 0.0, 0.0, 0.08, 0.03, 0.986, 192.0, 0.0, 0.0, 0.0, 0.0, 0.0, 0.0, 0.0, 0.0, 0.0, 1.740935697007908E9, 0.0, 2025-03-02 19:14:57.007
155.0, 3770.8286965881225, 0.0, 0.0, 0.0, 0.0, 0.0, 0.0, 0.0, 0.08, 0.03, 0.986, 192.0, 0.0, 0.0, 0.0, 0.0, 0.0, 0.0, 0.0, 0.0, 0.0, 1.740935697007932E9, 0.0, 2025-03-02 19:14:57.007
156.0, 3783.4574322053713, 0.0, 0.0, 0.0, 0.0, 0.0, 0.0, 0.0, 0.08, 0.03, 0.986, 192.0, 0.0, 0.0, 0.0, 0.0, 0.0, 0.0, 0.0, 0.0, 0.0, 1.740935697007956E9, 0.0, 2025-03-02 19:14:57.007
157.0, 3821.1201216125637, 0.0, 0.0, 0.0, 0.0, 0.0, 0.0, 0.0, 0.08, 0.03, 0.986, 192.0, 0.0, 0.0, 0.0, 0.0, 0.0, 0.0, 0.0, 0.0, 0.0, 1.74093569700798E9, 0.0, 2025-03-02 19:14:57.007
158.0, 3809.7654354292677, 0.0, 0.0, 0.0, 0.0, 0.0, 0.0, 0.0, 0.08, 0.03, 0.986, 192.0, 0.0, 0.0, 0.0, 0.0, 0.0, 0.0, 0.0, 0.0, 0.0, 1.740935697008005E9, 0.0, 2025-03-02 19:14:57.008
159.0, 3774.717900123346, 0.0, 0.0, 0.0, 0.0, 0.0, 0.0, 0.0, 0.08, 0.03, 0.986, 192.0, 0.0, 0.0, 0.0, 0.0, 0.0, 0.0, 0.0, 0.0, 0.0, 1.740935697008029E9, 0.0, 2025-03-02 19:14:57.008
160.0, 3771.588655899603, 0.0, 0.0, 0.0, 0.0, 0.0, 0.0, 0.0, 0.08, 0.03, 0.986, 192.0, 0.0, 0.0, 0.0, 0.0, 0.0, 0.0, 0.0, 0.0, 0.0, 1.740935697008053E9, 0.0, 2025-03-02 19:14:57.008
161.0, 3783.233914760818, 0.0, 0.0, 0.0, 0.0, 0.0, 0.0, 0.0, 0.08, 0.03, 0.986, 192.0, 0.0, 0.0, 0.0, 0.0, 0.0, 0.0, 0.0, 0.0, 0.0, 1.740935697008078E9, 0.0, 2025-03-02 19:14:57.008
162.0, 3821.3212873126613, 0.0, 0.0, 0.0, 0.0, 0.0, 0.0, 0.0, 0.08, 0.03, 0.986, 192.0, 0.0, 0.0, 0.0, 0.0, 0.0, 0.0, 0.0, 0.0, 0.0, 1.740935697008102E9, 0.0, 2025-03-02 19:14:57.008
163.0, 3813.1181970975636, 0.0, 0.0, 0.0, 0.0, 0.0, 0.0, 0.0, 0.088, 0.032, 0.988, 192.0, 2.0, 192.0, 1.0, 0.0, 30.0, 224.0, 0.0, 0.0, 0.0, 1.740935697008127E9, 0.0, 2025-03-02 19:14:57.008
164.0, 3777.2883507357064, 0.0, 0.0, 0.0, 0.0, 0.0, 0.0, 0.0, 0.088, 0.032, 0.988, 192.0, 0.0, 0.0, 0.0, 0.0, 0.0, 0.0, 0.0, 0.0, 0.0, 1.740935697008152E9, 0.0, 2025-03-02 19:14:57.008
165.0, 3771.566304155148, 0.0, 0.0, 0.0, 0.0, 0.0, 0.0, 0.0, 0.088, 0.032, 0.988, 192.0, 0.0, 0.0, 0.0, 0.0, 0.0, 0.0, 0.0, 0.0, 0.0, 1.740935697068123E9, 0.0, 2025-03-02 19:14:57.068
166.0, 3783.613894416558, 0.0, 0.0, 0.0, 0.0, 0.0, 0.0, 0.0, 0.088, 0.032, 0.988, 192.0, 0.0, 0.0, 0.0, 0.0, 0.0, 0.0, 0.0, 0.0, 0.0, 1.740935697068171E9, 0.0, 2025-03-02 19:14:57.068
167.0, 3822.014191390776, 0.0, 0.0, 0.0, 0.0, 0.0, 0.0, 0.0, 0.088, 0.032, 0.988, 192.0, 0.0, 0.0, 0.0, 0.0, 0.0, 0.0, 0.0, 0.0, 0.0, 1.740935697068197E9, 0.0, 2025-03-02 19:14:57.068
168.0, 3810.011304618276, 0.0, 0.0, 0.0, 0.0, 0.0, 0.0, 0.0, 0.088, 0.032, 0.988, 192.0, 0.0, 0.0, 0.0, 0.0, 0.0, 0.0, 0.0, 0.0, 0.0, 1.74093569706829E9, 0.0, 2025-03-02 19:14:57.068
169.0, 3774.404975700972, 0.0, 0.0, 0.0, 0.0, 0.0, 0.0, 0.0, 0.088, 0.032, 0.988, 192.0, 0.0, 0.0, 0.0, 0.0, 0.0, 0.0, 0.0, 0.0, 0.0, 1.740935697068333E9, 0.0, 2025-03-02 19:14:57.068
170.0, 3772.1027460220753, 0.0, 0.0, 0.0, 0.0, 0.0, 0.0, 0.0, 0.088, 0.032, 0.988, 192.0, 0.0, 0.0, 0.0, 0.0, 0.0, 0.0, 0.0, 0.0, 0.0, 1.740935697068377E9, 0.0, 2025-03-02 19:14:57.068
171.0, 3782.496307193793, 0.0, 0.0, 0.0, 0.0, 0.0, 0.0, 0.0, 0.088, 0.032, 0.988, 192.0, 0.0, 0.0, 0.0, 0.0, 0.0, 0.0, 0.0, 0.0, 0.0, 1.740935697068422E9, 0.0, 2025-03-02 19:14:57.068
172.0, 3817.074455866153, 0.0, 0.0, 0.0, 0.0, 0.0, 0.0, 0.0, 0.088, 0.032, 0.988, 192.0, 0.0, 0.0, 0.0, 0.0, 0.0, 0.0, 0.0, 0.0, 0.0, 1.740935697068463E9, 0.0, 2025-03-02 19:14:57.068
173.0, 3807.5973162171026, 0.0, 0.0, 0.0, 0.0, 0.0, 0.0, 0.0, 0.07200000000000001, 0.028, 0.982, 192.0, 2.0, 64.0, 0.0, 224.0, 30.0, 176.0, 0.0, 0.0, 0.0, 1.740935697068505E9, 0.0, 2025-03-02 19:14:57.068
174.0, 3776.9530745688767, 0.0, 0.0, 0.0, 0.0, 0.0, 0.0, 0.0, 0.07200000000000001, 0.028, 0.982, 192.0, 0.0, 0.0, 0.0, 0.0, 0.0, 0.0, 0.0, 0.0, 0.0, 1.740935697068567E9, 0.0, 2025-03-02 19:14:57.068
175.0, 3773.466202433849, 0.0, 0.0, 0.0, 0.0, 0.0, 0.0, 0.0, 0.07200000000000001, 0.028, 0.982, 192.0, 0.0, 0.0, 0.0, 0.0, 0.0, 0.0, 0.0, 0.0, 0.0, 1.740935697068601E9, 0.0, 2025-03-02 19:14:57.068
176.0, 3784.753833383779, 0.0, 0.0, 0.0, 0.0, 0.0, 0.0, 0.0, 0.07200000000000001, 0.028, 0.982, 192.0, 0.0, 0.0, 0.0, 0.0, 0.0, 0.0, 0.0, 0.0, 0.0, 1.740935697068625E9, 0.0, 2025-03-02 19:14:57.068
177.0, 3819.488444267326, 0.0, 0.0, 0.0, 0.0, 0.0, 0.0, 0.0, 0.07200000000000001, 0.028, 0.982, 192.0, 0.0, 0.0, 0.0, 0.0, 0.0, 0.0, 0.0, 0.0, 0.0, 1.740935697068648E9, 0.0, 2025-03-02 19:14:57.068
178.0, 3807.329095283639, 0.0, 0.0, 0.0, 0.0, 0.0, 0.0, 0.0, 0.07200000000000001, 0.028, 0.982, 192.0, 0.0, 0.0, 0.0, 0.0, 0.0, 0.0, 0.0, 0.0, 0.0, 1.74093569706867E9, 0.0, 2025-03-02 19:14:57.068
179.0, 3773.6673681339466, 0.0, 0.0, 0.0, 0.0, 0.0, 0.0, 0.0, 0.07200000000000001, 0.028, 0.982, 192.0, 0.0, 0.0, 0.0, 0.0, 0.0, 0.0, 0.0, 0.0, 0.0, 1.740935697068693E9, 0.0, 2025-03-02 19:14:57.068
180.0, 3770.0910890210976, 0.0, 0.0, 0.0, 0.0, 0.0, 0.0, 0.0, 0.07200000000000001, 0.028, 0.982, 192.0, 0.0, 0.0, 0.0, 0.0, 0.0, 0.0, 0.0, 0.0, 0.0, 1.74093569712834E9, 0.0, 2025-03-02 19:14:57.128
181.0, 3781.5128304377595, 0.0, 0.0, 0.0, 0.0, 0.0, 0.0, 0.0, 0.07200000000000001, 0.028, 0.982, 192.0, 0.0, 0.0, 0.0, 0.0, 0.0, 0.0, 0.0, 0.0, 0.0, 1.740935697128414E9, 0.0, 2025-03-02 19:14:57.128
182.0, 3816.783883188234, 0.0, 0.0, 0.0, 0.0, 0.0, 0.0, 0.0, 0.07200000000000001, 0.028, 0.982, 192.0, 0.0, 0.0, 0.0, 0.0, 0.0, 0.0, 0.0, 0.0, 0.0, 1.740935697128466E9, 0.0, 2025-03-02 19:14:57.128
183.0, 3806.5691359721586, 0.0, 0.0, 0.0, 0.0, 0.0, 0.0, 0.0, 0.08, 0.026000000000000002, 0.984, 192.0, 2.0, 128.0, 0.0, 208.0, 30.0, 192.0, 0.0, 0.0, 0.0, 1.740935697128533E9, 0.0, 2025-03-02 19:14:57.128
184.0, 3772.974464055832, 0.0, 0.0, 0.0, 0.0, 0.0, 0.0, 0.0, 0.08, 0.026000000000000002, 0.984, 192.0, 0.0, 0.0, 0.0, 0.0, 0.0, 0.0, 0.0, 0.0, 0.0, 1.740935697128598E9, 0.0, 2025-03-02 19:14:57.128
185.0, 3768.749984353779, 0.0, 0.0, 0.0, 0.0, 0.0, 0.0, 0.0, 0.08, 0.026000000000000002, 0.984, 192.0, 0.0, 0.0, 0.0, 0.0, 0.0, 0.0, 0.0, 0.0, 0.0, 1.740935697128653E9, 0.0, 2025-03-02 19:14:57.128
186.0, 3778.8976763364885, 0.0, 0.0, 0.0, 0.0, 0.0, 0.0, 0.0, 0.08, 0.026000000000000002, 0.984, 192.0, 0.0, 0.0, 0.0, 0.0, 0.0, 0.0, 0.0, 0.0, 0.0, 1.740935697128777E9, 0.0, 2025-03-02 19:14:57.128
187.0, 3815.1298540985413, 0.0, 0.0, 0.0, 0.0, 0.0, 0.0, 0.0, 0.08, 0.026000000000000002, 0.984, 192.0, 0.0, 0.0, 0.0, 0.0, 0.0, 0.0, 0.0, 0.0, 0.0, 1.740935697128828E9, 0.0, 2025-03-02 19:14:57.128
188.0, 3804.110444082075, 0.0, 0.0, 0.0, 0.0, 0.0, 0.0, 0.0, 0.08, 0.026000000000000002, 0.984, 192.0, 0.0, 0.0, 0.0, 0.0, 0.0, 0.0, 0.0, 0.0, 0.0, 1.740935697128876E9, 0.0, 2025-03-02 19:14:57.128
189.0, 3768.593522142592, 0.0, 0.0, 0.0, 0.0, 0.0, 0.0, 0.0, 0.08, 0.026000000000000002, 0.984, 192.0, 0.0, 0.0, 0.0, 0.0, 0.0, 0.0, 0.0, 0.0, 0.0, 1.740935697128924E9, 0.0, 2025-03-02 19:14:57.128
190.0, 3769.0852605206087, 0.0, 0.0, 0.0, 0.0, 0.0, 0.0, 0.0, 0.08, 0.026000000000000002, 0.984, 192.0, 0.0, 0.0, 0.0, 0.0, 0.0, 0.0, 0.0, 0.0, 0.0, 1.740935697128974E9, 0.0, 2025-03-02 19:14:57.128
191.0, 3780.372891470539, 0.0, 0.0, 0.0, 0.0, 0.0, 0.0, 0.0, 0.08, 0.026000000000000002, 0.984, 192.0, 0.0, 0.0, 0.0, 0.0, 0.0, 0.0, 0.0, 0.0, 0.0, 1.740935697129036E9, 0.0, 2025-03-02 19:14:57.129
192.0, 3817.4767872663488, 0.0, 0.0, 0.0, 0.0, 0.0, 0.0, 0.0, 0.08, 0.026000000000000002, 0.984, 192.0, 2.0, 128.0, 0.0, 208.0, 30.0, 192.0, 0.0, 0.0, 0.0, 1.740935697129088E9, 0.0, 2025-03-02 19:14:57.129
193.0, 3808.2455168063066, 0.0, 0.0, 0.0, 0.0, 0.0, 0.0, 0.0, 0.08, 0.026000000000000002, 0.984, 192.0, 0.0, 0.0, 0.0, 0.0, 0.0, 0.0, 0.0, 0.0, 0.0, 1.740935697129137E9, 0.0, 2025-03-02 19:14:57.129
194.0, 3771.7674698552455, 0.0, 0.0, 0.0, 0.0, 0.0, 0.0, 0.0, 0.08, 0.026000000000000002, 0.984, 192.0, 0.0, 0.0, 0.0, 0.0, 0.0, 0.0, 0.0, 0.0, 0.0, 1.740935697129186E9, 0.0, 2025-03-02 19:14:57.129
195.0, 3767.274769219729, 0.0, 0.0, 0.0, 0.0, 0.0, 0.0, 0.0, 0.08, 0.026000000000000002, 0.984, 192.0, 0.0, 0.0, 0.0, 0.0, 0.0, 0.0, 0.0, 0.0, 0.0, 1.740935697188747E9, 0.0, 2025-03-02 19:14:57.188
196.0, 3777.6459786469914, 0.0, 0.0, 0.0, 0.0, 0.0, 0.0, 0.0, 0.08, 0.026000000000000002, 0.984, 192.0, 0.0, 0.0, 0.0, 0.0, 0.0, 0.0, 0.0, 0.0, 0.0, 1.740935697188822E9, 0.0, 2025-03-02 19:14:57.188
197.0, 3812.6711622084576, 0.0, 0.0, 0.0, 0.0, 0.0, 0.0, 0.0, 0.08, 0.026000000000000002, 0.984, 192.0, 0.0, 0.0, 0.0, 0.0, 0.0, 0.0, 0.0, 0.0, 0.0, 1.740935697188881E9, 0.0, 2025-03-02 19:14:57.188
198.0, 3802.1211388255524, 0.0, 0.0, 0.0, 0.0, 0.0, 0.0, 0.0, 0.08, 0.026000000000000002, 0.984, 192.0, 0.0, 0.0, 0.0, 0.0, 0.0, 0.0, 0.0, 0.0, 0.0, 1.740935697188946E9, 0.0, 2025-03-02 19:14:57.188
199.0, 3768.9287983094214, 0.0, 0.0, 0.0, 0.0, 0.0, 0.0, 0.0, 0.08, 0.026000000000000002, 0.984, 192.0, 0.0, 0.0, 0.0, 0.0, 0.0, 0.0, 0.0, 0.0, 0.0, 1.740935697188998E9, 0.0, 2025-03-02 19:14:57.188
200.0, 3769.264074476251, 0.0, 0.0, 0.0, 0.0, 0.0, 0.0, 0.0, 0.08, 0.026000000000000002, 0.984, 192.0, 0.0, 0.0, 0.0, 0.0, 0.0, 0.0, 0.0, 0.0, 0.0, 1.740935697189053E9, 0.0, 2025-03-02 19:14:57.189
201.0, 3780.9987403152873, 0.0, 0.0, 0.0, 0.0, 0.0, 0.0, 0.0, 0.08, 0.026000000000000002, 0.984, 192.0, 0.0, 0.0, 0.0, 0.0, 0.0, 0.0, 0.0, 0.0, 0.0, 1.740935697189112E9, 0.0, 2025-03-02 19:14:57.189
202.0, 3815.487482009826, 0.0, 0.0, 0.0, 0.0, 0.0, 0.0, 0.0, 0.082, 0.02, 0.982, 192.0, 2.0, 144.0, 0.0, 160.0, 30.0, 176.0, 0.0, 0.0, 0.0, 1.740935697189165E9, 0.0, 2025-03-02 19:14:57.189
203.0, 3807.75377842829, 0.0, 0.0, 0.0, 0.0, 0.0, 0.0, 0.0, 0.082, 0.02, 0.982, 192.0, 0.0, 0.0, 0.0, 0.0, 0.0, 0.0, 0.0, 0.0, 0.0, 1.740935697189286E9, 0.0, 2025-03-02 19:14:57.189
204.0, 3772.594484400092, 0.0, 0.0, 0.0, 0.0, 0.0, 0.0, 0.0, 0.082, 0.02, 0.982, 192.0, 0.0, 0.0, 0.0, 0.0, 0.0, 0.0, 0.0, 0.0, 0.0, 1.740935697189339E9, 0.0, 2025-03-02 19:14:57.189
205.0, 3766.715975608346, 0.0, 0.0, 0.0, 0.0, 0.0, 0.0, 0.0, 0.082, 0.02, 0.982, 192.0, 0.0, 0.0, 0.0, 0.0, 0.0, 0.0, 0.0, 0.0, 0.0, 1.740935697189392E9, 0.0, 2025-03-02 19:14:57.189
206.0, 3780.708167637368, 0.0, 0.0, 0.0, 0.0, 0.0, 0.0, 0.0, 0.082, 0.02, 0.982, 192.0, 0.0, 0.0, 0.0, 0.0, 0.0, 0.0, 0.0, 0.0, 0.0, 1.740935697189446E9, 0.0, 2025-03-02 19:14:57.189
207.0, 3817.2532698217956, 0.0, 0.0, 0.0, 0.0, 0.0, 0.0, 0.0, 0.082, 0.02, 0.982, 192.0, 0.0, 0.0, 0.0, 0.0, 0.0, 0.0, 0.0, 0.0, 0.0, 1.740935697189502E9, 0.0, 2025-03-02 19:14:57.189
208.0, 3808.4690342508597, 0.0, 0.0, 0.0, 0.0, 0.0, 0.0, 0.0, 0.082, 0.02, 0.982, 192.0, 0.0, 0.0, 0.0, 0.0, 0.0, 0.0, 0.0, 0.0, 0.0, 1.740935697189574E9, 0.0, 2025-03-02 19:14:57.189
209.0, 3772.0580425331646, 0.0, 0.0, 0.0, 0.0, 0.0, 0.0, 0.0, 0.082, 0.02, 0.982, 192.0, 0.0, 0.0, 0.0, 0.0, 0.0, 0.0, 0.0, 0.0, 0.0, 1.740935697189627E9, 0.0, 2025-03-02 19:14:57.189
210.0, 3764.9948912852874, 0.0, 0.0, 0.0, 0.0, 0.0, 0.0, 0.0, 0.082, 0.02, 0.982, 192.0, 0.0, 0.0, 0.0, 0.0, 0.0, 0.0, 0.0, 0.0, 0.0, 1.740935697247505E9, 0.0, 2025-03-02 19:14:57.247
211.0, 3779.4117664589608, 0.0, 0.0, 0.0, 0.0, 0.0, 0.0, 0.0, 0.082, 0.02, 0.982, 192.0, 0.0, 0.0, 0.0, 0.0, 0.0, 0.0, 0.0, 0.0, 0.0, 1.74093569724759E9, 0.0, 2025-03-02 19:14:57.247
212.0, 3816.9626971438765, 0.0, 0.0, 0.0, 0.0, 0.0, 0.0, 0.0, 0.076, 0.03, 0.982, 192.0, 2.0, 96.0, 0.0, 240.0, 30.0, 176.0, 0.0, 0.0, 0.0, 1.740935697247634E9, 0.0, 2025-03-02 19:14:57.247
213.0, 3810.7936156742117, 0.0, 0.0, 0.0, 0.0, 0.0, 0.0, 0.0, 0.076, 0.03, 0.982, 192.0, 0.0, 0.0, 0.0, 0.0, 0.0, 0.0, 0.0, 0.0, 0.0, 1.740935697247677E9, 0.0, 2025-03-02 19:14:57.247
214.0, 3774.6955483788906, 0.0, 0.0, 0.0, 0.0, 0.0, 0.0, 0.0, 0.076, 0.03, 0.982, 192.0, 0.0, 0.0, 0.0, 0.0, 0.0, 0.0, 0.0, 0.0, 0.0, 1.740935697247716E9, 0.0, 2025-03-02 19:14:57.247
215.0, 3767.5206384087373, 0.0, 0.0, 0.0, 0.0, 0.0, 0.0, 0.0, 0.076, 0.03, 0.982, 192.0, 0.0, 0.0, 0.0, 0.0, 0.0, 0.0, 0.0, 0.0, 0.0, 1.740935697247756E9, 0.0, 2025-03-02 19:14:57.247
216.0, 3778.428289702927, 0.0, 0.0, 0.0, 0.0, 0.0, 0.0, 0.0, 0.076, 0.03, 0.982, 192.0, 0.0, 0.0, 0.0, 0.0, 0.0, 0.0, 0.0, 0.0, 0.0, 1.740935697247798E9, 0.0, 2025-03-02 19:14:57.247
217.0, 3816.51566225477, 0.0, 0.0, 0.0, 0.0, 0.0, 0.0, 0.0, 0.076, 0.03, 0.982, 192.0, 0.0, 0.0, 0.0, 0.0, 0.0, 0.0, 0.0, 0.0, 0.0, 1.740935697247838E9, 0.0, 2025-03-02 19:14:57.247
218.0, 3813.6099354755806, 0.0, 0.0, 0.0, 0.0, 0.0, 0.0, 0.0, 0.076, 0.03, 0.982, 192.0, 0.0, 0.0, 0.0, 0.0, 0.0, 0.0, 0.0, 0.0, 0.0, 1.740935697247879E9, 0.0, 2025-03-02 19:14:57.247
219.0, 3778.137717025008, 0.0, 0.0, 0.0, 0.0, 0.0, 0.0, 0.0, 0.076, 0.03, 0.982, 192.0, 0.0, 0.0, 0.0, 0.0, 0.0, 0.0, 0.0, 0.0, 0.0, 1.740935697247921E9, 0.0, 2025-03-02 19:14:57.247
220.0, 3768.749984353779, 0.0, 0.0, 0.0, 0.0, 0.0, 0.0, 0.0, 0.076, 0.03, 0.982, 192.0, 0.0, 0.0, 0.0, 0.0, 0.0, 0.0, 0.0, 0.0, 0.0, 1.740935697247962E9, 0.0, 2025-03-02 19:14:57.247
221.0, 3781.2222577598404, 0.0, 0.0, 0.0, 0.0, 0.0, 0.0, 0.0, 0.076, 0.03, 0.982, 192.0, 0.0, 0.0, 0.0, 0.0, 0.0, 0.0, 0.0, 0.0, 0.0, 1.74093569724807E9, 0.0, 2025-03-02 19:14:57.248
222.0, 3820.047237878709, 0.0, 0.0, 0.0, 0.0, 0.0, 0.0, 0.0, 0.078, 0.026000000000000002, 0.982, 192.0, 2.0, 112.0, 0.0, 208.0, 30.0, 176.0, 0.0, 0.0, 0.0, 1.740935697248118E9, 0.0, 2025-03-02 19:14:57.248
223.0, 3811.1959470744073, 0.0, 0.0, 0.0, 0.0, 0.0, 0.0, 0.0, 0.078, 0.026000000000000002, 0.982, 192.0, 0.0, 0.0, 0.0, 0.0, 0.0, 0.0, 0.0, 0.0, 0.0, 1.740935697248158E9, 0.0, 2025-03-02 19:14:57.248
224.0, 3772.974464055832, 0.0, 0.0, 0.0, 0.0, 0.0, 0.0, 0.0, 0.078, 0.026000000000000002, 0.982, 192.0, 0.0, 0.0, 0.0, 0.0, 0.0, 0.0, 0.0, 0.0, 0.0, 1.740935697248196E9, 0.0, 2025-03-02 19:14:57.248
225.0, 3766.626568630525, 0.0, 0.0, 0.0, 0.0, 0.0, 0.0, 0.0, 0.078, 0.026000000000000002, 0.982, 192.0, 0.0, 0.0, 0.0, 0.0, 0.0, 0.0, 0.0, 0.0, 0.0, 1.740935697307718E9, 0.0, 2025-03-02 19:14:57.307
226.0, 3784.619722917047, 0.0, 0.0, 0.0, 0.0, 0.0, 0.0, 0.0, 0.078, 0.026000000000000002, 0.982, 192.0, 0.0, 0.0, 0.0, 0.0, 0.0, 0.0, 0.0, 0.0, 0.0, 1.740935697307788E9, 0.0, 2025-03-02 19:14:57.307
227.0, 3821.164825101474, 0.0, 0.0, 0.0, 0.0, 0.0, 0.0, 0.0, 0.078, 0.026000000000000002, 0.982, 192.0, 0.0, 0.0, 0.0, 0.0, 0.0, 0.0, 0.0, 0.0, 0.0, 1.740935697307832E9, 0.0, 2025-03-02 19:14:57.307
228.0, 3812.291182552717, 0.0, 0.0, 0.0, 0.0, 0.0, 0.0, 0.0, 0.078, 0.026000000000000002, 0.982, 192.0, 0.0, 0.0, 0.0, 0.0, 0.0, 0.0, 0.0, 0.0, 0.0, 1.740935697307873E9, 0.0, 2025-03-02 19:14:57.307
229.0, 3775.2990454791843, 0.0, 0.0, 0.0, 0.0, 0.0, 0.0, 0.0, 0.078, 0.026000000000000002, 0.982, 192.0, 0.0, 0.0, 0.0, 0.0, 0.0, 0.0, 0.0, 0.0, 0.0, 1.740935697307917E9, 0.0, 2025-03-02 19:14:57.307
230.0, 3771.0298622882206, 0.0, 0.0, 0.0, 0.0, 0.0, 0.0, 0.0, 0.078, 0.026000000000000002, 0.982, 192.0, 0.0, 0.0, 0.0, 0.0, 0.0, 0.0, 0.0, 0.0, 0.0, 1.740935697308061E9, 0.0, 2025-03-02 19:14:57.308
231.0, 3779.8811530925223, 0.0, 0.0, 0.0, 0.0, 0.0, 0.0, 0.0, 0.078, 0.026000000000000002, 0.982, 192.0, 0.0, 0.0, 0.0, 0.0, 0.0, 0.0, 0.0, 0.0, 0.0, 1.740935697308103E9, 0.0, 2025-03-02 19:14:57.308
232.0, 3813.6099354755806, 0.0, 0.0, 0.0, 0.0, 0.0, 0.0, 0.0, 0.088, 0.028, 0.982, 192.0, 2.0, 192.0, 0.0, 224.0, 30.0, 176.0, 0.0, 0.0, 0.0, 1.740935697308143E9, 0.0, 2025-03-02 19:14:57.308
233.0, 3807.7984819172007, 0.0, 0.0, 0.0, 0.0, 0.0, 0.0, 0.0, 0.088, 0.028, 0.982, 192.0, 0.0, 0.0, 0.0, 0.0, 0.0, 0.0, 0.0, 0.0, 0.0, 1.740935697308193E9, 0.0, 2025-03-02 19:14:57.308
234.0, 3774.181458256419, 0.0, 0.0, 0.0, 0.0, 0.0, 0.0, 0.0, 0.088, 0.028, 0.982, 192.0, 0.0, 0.0, 0.0, 0.0, 0.0, 0.0, 0.0, 0.0, 0.0, 1.740935697308233E9, 0.0, 2025-03-02 19:14:57.308
235.0, 3769.4205366874385, 0.0, 0.0, 0.0, 0.0, 0.0, 0.0, 0.0, 0.088, 0.028, 0.982, 192.0, 0.0, 0.0, 0.0, 0.0, 0.0, 0.0, 0.0, 0.0, 0.0, 1.740935697308274E9, 0.0, 2025-03-02 19:14:57.308
236.0, 3782.719824638346, 0.0, 0.0, 0.0, 0.0, 0.0, 0.0, 0.0, 0.088, 0.028, 0.982, 192.0, 0.0, 0.0, 0.0, 0.0, 0.0, 0.0, 0.0, 0.0, 0.0, 1.740935697308313E9, 0.0, 2025-03-02 19:14:57.308
237.0, 3819.04140937822, 0.0, 0.0, 0.0, 0.0, 0.0, 0.0, 0.0, 0.088, 0.028, 0.982, 192.0, 0.0, 0.0, 0.0, 0.0, 0.0, 0.0, 0.0, 0.0, 0.0, 1.740935697308354E9, 0.0, 2025-03-02 19:14:57.308
238.0, 3813.297011053206, 0.0, 0.0, 0.0, 0.0, 0.0, 0.0, 0.0, 0.088, 0.028, 0.982, 192.0, 0.0, 0.0, 0.0, 0.0, 0.0, 0.0, 0.0, 0.0, 0.0, 1.740935697308394E9, 0.0, 2025-03-02 19:14:57.308
239.0, 3775.0531762901755, 0.0, 0.0, 0.0, 0.0, 0.0, 0.0, 0.0, 0.088, 0.028, 0.982, 192.0, 0.0, 0.0, 0.0, 0.0, 0.0, 0.0, 0.0, 0.0, 0.0, 1.740935697308503E9, 0.0, 2025-03-02 19:14:57.308
240.0, 3770.1357925100083, 0.0, 0.0, 0.0, 0.0, 0.0, 0.0, 0.0, 0.088, 0.028, 0.982, 192.0, 0.0, 0.0, 0.0, 0.0, 0.0, 0.0, 0.0, 0.0, 0.0, 1.740935697308563E9, 0.0, 2025-03-02 19:14:57.308
241.0, 3782.786879871712, 0.0, 0.0, 0.0, 0.0, 0.0, 0.0, 0.0, 0.08, 0.028, 0.98, 192.0, 2.0, 128.0, 0.0, 224.0, 30.0, 160.0, 0.0, 0.0, 0.0, 1.740935697368934E9, 0.0, 2025-03-02 19:14:57.368
242.0, 3819.6002029896026, 0.0, 0.0, 0.0, 0.0, 0.0, 0.0, 0.0, 0.08, 0.028, 0.98, 192.0, 0.0, 0.0, 0.0, 0.0, 0.0, 0.0, 0.0, 0.0, 0.0, 1.740935697368997E9, 0.0, 2025-03-02 19:14:57.368
243.0, 3812.626458719547, 0.0, 0.0, 0.0, 0.0, 0.0, 0.0, 0.0, 0.08, 0.028, 0.98, 192.0, 0.0, 0.0, 0.0, 0.0, 0.0, 0.0, 0.0, 0.0, 0.0, 1.740935697369037E9, 0.0, 2025-03-02 19:14:57.369
244.0, 3776.3495774685834, 0.0, 0.0, 0.0, 0.0, 0.0, 0.0, 0.0, 0.08, 0.028, 0.98, 192.0, 0.0, 0.0, 0.0, 0.0, 0.0, 0.0, 0.0, 0.0, 0.0, 1.740935697369076E9, 0.0, 2025-03-02 19:14:57.369
245.0, 3774.6731966344355, 0.0, 0.0, 0.0, 0.0, 0.0, 0.0, 0.0, 0.08, 0.028, 0.98, 192.0, 0.0, 0.0, 0.0, 0.0, 0.0, 0.0, 0.0, 0.0, 0.0, 1.740935697369113E9, 0.0, 2025-03-02 19:14:57.369
246.0, 3784.887943850511, 0.0, 0.0, 0.0, 0.0, 0.0, 0.0, 0.0, 0.08, 0.028, 0.98, 192.0, 0.0, 0.0, 0.0, 0.0, 0.0, 0.0, 0.0, 0.0, 0.0, 1.740935697369151E9, 0.0, 2025-03-02 19:14:57.369
247.0, 3819.5107960117816, 0.0, 0.0, 0.0, 0.0, 0.0, 0.0, 0.0, 0.08, 0.028, 0.98, 192.0, 0.0, 0.0, 0.0, 0.0, 0.0, 0.0, 0.0, 0.0, 0.0, 1.740935697369189E9, 0.0, 2025-03-02 19:14:57.369
248.0, 3815.4427785209155, 0.0, 0.0, 0.0, 0.0, 0.0, 0.0, 0.0, 0.08, 0.028, 0.98, 192.0, 0.0, 0.0, 0.0, 0.0, 0.0, 0.0, 0.0, 0.0, 0.0, 1.740935697369225E9, 0.0, 2025-03-02 19:14:57.369
249.0, 3778.763565869757, 0.0, 0.0, 0.0, 0.0, 0.0, 0.0, 0.0, 0.08, 0.028, 0.98, 192.0, 0.0, 0.0, 0.0, 0.0, 0.0, 0.0, 0.0, 0.0, 0.0, 1.740935697369264E9, 0.0, 2025-03-02 19:14:57.369
250.0, 3769.7111093653575, 0.0, 0.0, 0.0, 0.0, 0.0, 0.0, 0.0, 0.08, 0.028, 0.98, 192.0, 0.0, 0.0, 0.0, 0.0, 0.0, 0.0, 0.0, 0.0, 0.0, 1.740935697369303E9, 0.0, 2025-03-02 19:14:57.369
251.0, 3781.8257548601337, 0.0, 0.0, 0.0, 0.0, 0.0, 0.0, 0.0, 0.084, 0.028, 0.982, 192.0, 2.0, 160.0, 0.0, 224.0, 30.0, 176.0, 0.0, 0.0, 0.0, 1.740935697369342E9, 0.0, 2025-03-02 19:14:57.369
252.0, 3825.009325147787, 0.0, 0.0, 0.0, 0.0, 0.0, 0.0, 0.0, 0.084, 0.028, 0.982, 192.0, 0.0, 0.0, 0.0, 0.0, 0.0, 0.0, 0.0, 0.0, 0.0, 1.740935697369384E9, 0.0, 2025-03-02 19:14:57.369
253.0, 3817.7003047109015, 0.0, 0.0, 0.0, 0.0, 0.0, 0.0, 0.0, 0.084, 0.028, 0.982, 192.0, 0.0, 0.0, 0.0, 0.0, 0.0, 0.0, 0.0, 0.0, 0.0, 1.740935697369421E9, 0.0, 2025-03-02 19:14:57.369
254.0, 3779.5458769256925, 0.0, 0.0, 0.0, 0.0, 0.0, 0.0, 0.0, 0.084, 0.028, 0.982, 192.0, 0.0, 0.0, 0.0, 0.0, 0.0, 0.0, 0.0, 0.0, 0.0, 1.740935697369461E9, 0.0, 2025-03-02 19:14:57.369
255.0, 3776.9754263133323, 0.0, 0.0, 0.0, 0.0, 0.0, 0.0, 0.0, 0.084, 0.028, 0.982, 192.0, 0.0, 0.0, 0.0, 0.0, 0.0, 0.0, 0.0, 0.0, 0.0, 1.740935697369499E9, 0.0, 2025-03-02 19:14:57.369
0.0, 3786.877249107033, 0.0, 0.0, 0.0, 0.0, 0.0, 0.0, 0.0, 0.084, 0.028, 0.982, 192.0, 0.0, 0.0, 0.0, 0.0, 0.0, 0.0, 0.0, 0.0, 0.0, 1.740935697429291E9, 0.0, 2025-03-02 19:14:57.429
1.0, 3822.8859094245327, 0.0, 0.0, 0.0, 0.0, 0.0, 0.0, 0.0, 0.084, 0.028, 0.982, 192.0, 0.0, 0.0, 0.0, 0.0, 0.0, 0.0, 0.0, 0.0, 0.0, 1.740935697429345E9, 0.0, 2025-03-02 19:14:57.429
2.0, 3816.4039035324936, 0.0, 0.0, 0.0, 0.0, 0.0, 0.0, 0.0, 0.084, 0.028, 0.982, 192.0, 0.0, 0.0, 0.0, 0.0, 0.0, 0.0, 0.0, 0.0, 0.0, 1.740935697429372E9, 0.0, 2025-03-02 19:14:57.429
3.0, 3780.372891470539, 0.0, 0.0, 0.0, 0.0, 0.0, 0.0, 0.0, 0.084, 0.028, 0.982, 192.0, 0.0, 0.0, 0.0, 0.0, 0.0, 0.0, 0.0, 0.0, 0.0, 1.740935697429397E9, 0.0, 2025-03-02 19:14:57.429
4.0, 3773.197981500385, 0.0, 0.0, 0.0, 0.0, 0.0, 0.0, 0.0, 0.084, 0.028, 0.982, 192.0, 0.0, 0.0, 0.0, 0.0, 0.0, 0.0, 0.0, 0.0, 0.0, 1.740935697429421E9, 0.0, 2025-03-02 19:14:57.429
5.0, 3783.591542672103, 0.0, 0.0, 0.0, 0.0, 0.0, 0.0, 0.0, 0.08600000000000001, 0.028, 0.988, 192.0, 2.0, 176.0, 0.0, 224.0, 30.0, 224.0, 0.0, 0.0, 0.0, 1.740935697429446E9, 0.0, 2025-03-02 19:14:57.429
6.0, 3819.5331477562368, 0.0, 0.0, 0.0, 0.0, 0.0, 0.0, 0.0, 0.08600000000000001, 0.028, 0.988, 192.0, 0.0, 0.0, 0.0, 0.0, 0.0, 0.0, 0.0, 0.0, 0.0, 1.740935697429472E9, 0.0, 2025-03-02 19:14:57.429
7.0, 3811.8217959191556, 0.0, 0.0, 0.0, 0.0, 0.0, 0.0, 0.0, 0.08600000000000001, 0.028, 0.988, 192.0, 0.0, 0.0, 0.0, 0.0, 0.0, 0.0, 0.0, 0.0, 0.0, 1.740935697429497E9, 0.0, 2025-03-02 19:14:57.429
8.0, 3782.0939757935976, 0.0, 0.0, 0.0, 0.0, 0.0, 0.0, 0.0, 0.08600000000000001, 0.028, 0.988, 192.0, 0.0, 0.0, 0.0, 0.0, 0.0, 0.0, 0.0, 0.0, 0.0, 1.740935697429545E9, 0.0, 2025-03-02 19:14:57.429
9.0, 3775.6343216460136, 0.0, 0.0, 0.0, 0.0, 0.0, 0.0, 0.0, 0.08600000000000001, 0.028, 0.988, 192.0, 0.0, 0.0, 0.0, 0.0, 0.0, 0.0, 0.0, 0.0, 0.0, 1.740935697429572E9, 0.0, 2025-03-02 19:14:57.429
10.0, 3782.5410106827035, 0.0, 0.0, 0.0, 0.0, 0.0, 0.0, 0.0, 0.08600000000000001, 0.028, 0.988, 192.0, 0.0, 0.0, 0.0, 0.0, 0.0, 0.0, 0.0, 0.0, 0.0, 1.740935697429596E9, 0.0, 2025-03-02 19:14:57.429
11.0, 3818.9296506559435, 0.0, 0.0, 0.0, 0.0, 0.0, 0.0, 0.0, 0.08600000000000001, 0.028, 0.988, 192.0, 0.0, 0.0, 0.0, 0.0, 0.0, 0.0, 0.0, 0.0, 0.0, 1.740935697429621E9, 0.0, 2025-03-02 19:14:57.429
12.0, 3813.520528497759, 0.0, 0.0, 0.0, 0.0, 0.0, 0.0, 0.0, 0.08600000000000001, 0.028, 0.988, 192.0, 0.0, 0.0, 0.0, 0.0, 0.0, 0.0, 0.0, 0.0, 0.0, 1.740935697429646E9, 0.0, 2025-03-02 19:14:57.429
13.0, 3776.2154670018517, 0.0, 0.0, 0.0, 0.0, 0.0, 0.0, 0.0, 0.08600000000000001, 0.028, 0.988, 192.0, 0.0, 0.0, 0.0, 0.0, 0.0, 0.0, 0.0, 0.0, 0.0, 1.740935697429671E9, 0.0, 2025-03-02 19:14:57.429
14.0, 3773.2203332448407, 0.0, 0.0, 0.0, 0.0, 0.0, 0.0, 0.0, 0.08600000000000001, 0.028, 0.988, 192.0, 0.0, 0.0, 0.0, 0.0, 0.0, 0.0, 0.0, 0.0, 0.0, 1.740935697429695E9, 0.0, 2025-03-02 19:14:57.429
15.0, 3784.262095005762, 0.0, 0.0, 0.0, 0.0, 0.0, 0.0, 0.0, 0.088, 0.026000000000000002, 0.988, 192.0, 2.0, 192.0, 0.0, 208.0, 30.0, 224.0, 0.0, 0.0, 0.0, 1.740935697488205E9, 0.0, 2025-03-02 19:14:57.488
16.0, 3818.460264022382, 0.0, 0.0, 0.0, 0.0, 0.0, 0.0, 0.0, 0.088, 0.026000000000000002, 0.988, 192.0, 0.0, 0.0, 0.0, 0.0, 0.0, 0.0, 0.0, 0.0, 0.0, 1.740935697488322E9, 0.0, 2025-03-02 19:14:57.488
17.0, 3813.297011053206, 0.0, 0.0, 0.0, 0.0, 0.0, 0.0, 0.0, 0.088, 0.026000000000000002, 0.988, 192.0, 0.0, 0.0, 0.0, 0.0, 0.0, 0.0, 0.0, 0.0, 0.0, 1.740935697488377E9, 0.0, 2025-03-02 19:14:57.488
18.0, 3776.818964102145, 0.0, 0.0, 0.0, 0.0, 0.0, 0.0, 0.0, 0.088, 0.026000000000000002, 0.988, 192.0, 0.0, 0.0, 0.0, 0.0, 0.0, 0.0, 0.0, 0.0, 0.0, 1.740935697488604E9, 0.0, 2025-03-02 19:14:57.488
19.0, 3770.3146064656507, 0.0, 0.0, 0.0, 0.0, 0.0, 0.0, 0.0, 0.088, 0.026000000000000002, 0.988, 192.0, 0.0, 0.0, 0.0, 0.0, 0.0, 0.0, 0.0, 0.0, 0.0, 1.740935697488657E9, 0.0, 2025-03-02 19:14:57.488
20.0, 3783.0551008051757, 0.0, 0.0, 0.0, 0.0, 0.0, 0.0, 0.0, 0.088, 0.026000000000000002, 0.988, 192.0, 0.0, 0.0, 0.0, 0.0, 0.0, 0.0, 0.0, 0.0, 0.0, 1.740935697488705E9, 0.0, 2025-03-02 19:14:57.488
21.0, 3817.1862145884297, 0.0, 0.0, 0.0, 0.0, 0.0, 0.0, 0.0, 0.088, 0.026000000000000002, 0.988, 192.0, 0.0, 0.0, 0.0, 0.0, 0.0, 0.0, 0.0, 0.0, 0.0, 1.740935697488754E9, 0.0, 2025-03-02 19:14:57.488
22.0, 3808.9384208844212, 0.0, 0.0, 0.0, 0.0, 0.0, 0.0, 0.0, 0.088, 0.026000000000000002, 0.988, 192.0, 0.0, 0.0, 0.0, 0.0, 0.0, 0.0, 0.0, 0.0, 0.0, 1.740935697488802E9, 0.0, 2025-03-02 19:14:57.488
23.0, 3776.5507431686815, 0.0, 0.0, 0.0, 0.0, 0.0, 0.0, 0.0, 0.088, 0.026000000000000002, 0.988, 192.0, 0.0, 0.0, 0.0, 0.0, 0.0, 0.0, 0.0, 0.0, 0.0, 1.74093569748885E9, 0.0, 2025-03-02 19:14:57.488
24.0, 3771.3874901995055, 0.0, 0.0, 0.0, 0.0, 0.0, 0.0, 0.0, 0.088, 0.026000000000000002, 0.988, 192.0, 0.0, 0.0, 0.0, 0.0, 0.0, 0.0, 0.0, 0.0, 0.0, 1.740935697488898E9, 0.0, 2025-03-02 19:14:57.488
25.0, 3778.8753245920334, 0.0, 0.0, 0.0, 0.0, 0.0, 0.0, 0.0, 0.08600000000000001, 0.03, 0.976, 192.0, 2.0, 176.0, 0.0, 240.0, 30.0, 128.0, 0.0, 0.0, 0.0, 1.740935697488946E9, 0.0, 2025-03-02 19:14:57.488
26.0, 3814.1910808314183, 0.0, 0.0, 0.0, 0.0, 0.0, 0.0, 0.0, 0.08600000000000001, 0.03, 0.976, 192.0, 0.0, 0.0, 0.0, 0.0, 0.0, 0.0, 0.0, 0.0, 0.0, 1.740935697488999E9, 0.0, 2025-03-02 19:14:57.488
27.0, 3812.4476447639045, 0.0, 0.0, 0.0, 0.0, 0.0, 0.0, 0.0, 0.08600000000000001, 0.03, 0.976, 192.0, 0.0, 0.0, 0.0, 0.0, 0.0, 0.0, 0.0, 0.0, 0.0, 1.740935697489048E9, 0.0, 2025-03-02 19:14:57.489
28.0, 3776.0590047906644, 0.0, 0.0, 0.0, 0.0, 0.0, 0.0, 0.0, 0.08600000000000001, 0.03, 0.976, 192.0, 0.0, 0.0, 0.0, 0.0, 0.0, 0.0, 0.0, 0.0, 0.0, 1.740935697489096E9, 0.0, 2025-03-02 19:14:57.489
29.0, 3770.0687372766424, 0.0, 0.0, 0.0, 0.0, 0.0, 0.0, 0.0, 0.08600000000000001, 0.03, 0.976, 192.0, 0.0, 0.0, 0.0, 0.0, 0.0, 0.0, 0.0, 0.0, 0.0, 1.740935697489168E9, 0.0, 2025-03-02 19:14:57.489
30.0, 3780.5293536817258, 0.0, 0.0, 0.0, 0.0, 0.0, 0.0, 0.0, 0.08600000000000001, 0.03, 0.976, 192.0, 0.0, 0.0, 0.0, 0.0, 0.0, 0.0, 0.0, 0.0, 0.0, 1.740935697548622E9, 0.0, 2025-03-02 19:14:57.548
31.0, 3818.236746577829, 0.0, 0.0, 0.0, 0.0, 0.0, 0.0, 0.0, 0.08600000000000001, 0.03, 0.976, 192.0, 0.0, 0.0, 0.0, 0.0, 0.0, 0.0, 0.0, 0.0, 0.0, 1.740935697548711E9, 0.0, 2025-03-02 19:14:57.548
32.0, 3817.141511099519, 0.0, 0.0, 0.0, 0.0, 0.0, 0.0, 0.0, 0.08600000000000001, 0.03, 0.976, 192.0, 0.0, 0.0, 0.0, 0.0, 0.0, 0.0, 0.0, 0.0, 0.0, 1.740935697548765E9, 0.0, 2025-03-02 19:14:57.548
33.0, 3780.596408915092, 0.0, 0.0, 0.0, 0.0, 0.0, 0.0, 0.0, 0.08600000000000001, 0.03, 0.976, 192.0, 0.0, 0.0, 0.0, 0.0, 0.0, 0.0, 0.0, 0.0, 0.0, 1.740935697548815E9, 0.0, 2025-03-02 19:14:57.548
34.0, 3774.5390861677038, 0.0, 0.0, 0.0, 0.0, 0.0, 0.0, 0.0, 0.084, 0.03, 0.98, 192.0, 2.0, 160.0, 0.0, 240.0, 30.0, 160.0, 0.0, 0.0, 0.0, 1.740935697548865E9, 0.0, 2025-03-02 19:14:57.548
35.0, 3786.787842129212, 0.0, 0.0, 0.0, 0.0, 0.0, 0.0, 0.0, 0.084, 0.03, 0.98, 192.0, 0.0, 0.0, 0.0, 0.0, 0.0, 0.0, 0.0, 0.0, 0.0, 1.740935697549002E9, 0.0, 2025-03-02 19:14:57.549
36.0, 3823.2435373358176, 0.0, 0.0, 0.0, 0.0, 0.0, 0.0, 0.0, 0.084, 0.03, 0.98, 192.0, 0.0, 0.0, 0.0, 0.0, 0.0, 0.0, 0.0, 0.0, 0.0, 1.740935697549055E9, 0.0, 2025-03-02 19:14:57.549
37.0, 3819.3096303116836, 0.0, 0.0, 0.0, 0.0, 0.0, 0.0, 0.0, 0.084, 0.03, 0.98, 192.0, 0.0, 0.0, 0.0, 0.0, 0.0, 0.0, 0.0, 0.0, 0.0, 1.740935697549104E9, 0.0, 2025-03-02 19:14:57.549
38.0, 3780.752871126279, 0.0, 0.0, 0.0, 0.0, 0.0, 0.0, 0.0, 0.084, 0.03, 0.98, 192.0, 0.0, 0.0, 0.0, 0.0, 0.0, 0.0, 0.0, 0.0, 0.0, 1.740935697549154E9, 0.0, 2025-03-02 19:14:57.549
39.0, 3774.852010590078, 0.0, 0.0, 0.0, 0.0, 0.0, 0.0, 0.0, 0.084, 0.03, 0.98, 192.0, 0.0, 0.0, 0.0, 0.0, 0.0, 0.0, 0.0, 0.0, 0.0, 1.740935697549205E9, 0.0, 2025-03-02 19:14:57.549
40.0, 3786.4525659623823, 0.0, 0.0, 0.0, 0.0, 0.0, 0.0, 0.0, 0.084, 0.03, 0.98, 192.0, 0.0, 0.0, 0.0, 0.0, 0.0, 0.0, 0.0, 0.0, 0.0, 1.740935697549256E9, 0.0, 2025-03-02 19:14:57.549
41.0, 3821.388342546027, 0.0, 0.0, 0.0, 0.0, 0.0, 0.0, 0.0, 0.084, 0.03, 0.98, 192.0, 0.0, 0.0, 0.0, 0.0, 0.0, 0.0, 0.0, 0.0, 0.0, 1.740935697549307E9, 0.0, 2025-03-02 19:14:57.549
42.0, 3820.0248861342534, 0.0, 0.0, 0.0, 0.0, 0.0, 0.0, 0.0, 0.084, 0.03, 0.98, 192.0, 0.0, 0.0, 0.0, 0.0, 0.0, 0.0, 0.0, 0.0, 0.0, 1.740935697549361E9, 0.0, 2025-03-02 19:14:57.549
43.0, 3783.8597636055665, 0.0, 0.0, 0.0, 0.0, 0.0, 0.0, 0.0, 0.084, 0.03, 0.98, 192.0, 0.0, 0.0, 0.0, 0.0, 0.0, 0.0, 0.0, 0.0, 0.0, 1.740935697549413E9, 0.0, 2025-03-02 19:14:57.549
44.0, 3776.1260600240303, 0.0, 0.0, 0.0, 0.0, 0.0, 0.0, 0.0, 0.08600000000000001, 0.03, 0.984, 192.0, 2.0, 176.0, 0.0, 240.0, 30.0, 192.0, 0.0, 0.0, 0.0, 1.740935697549464E9, 0.0, 2025-03-02 19:14:57.549
45.0, 3783.278618249729, 0.0, 0.0, 0.0, 0.0, 0.0, 0.0, 0.0, 0.08600000000000001, 0.03, 0.984, 192.0, 0.0, 0.0, 0.0, 0.0, 0.0, 0.0, 0.0, 0.0, 0.0, 1.740935697610273E9, 0.0, 2025-03-02 19:14:57.610
46.0, 3818.9520024003987, 0.0, 0.0, 0.0, 0.0, 0.0, 0.0, 0.0, 0.08600000000000001, 0.03, 0.984, 192.0, 0.0, 0.0, 0.0, 0.0, 0.0, 0.0, 0.0, 0.0, 0.0, 1.740935697610407E9, 0.0, 2025-03-02 19:14:57.610
47.0, 3814.3251912981505, 0.0, 0.0, 0.0, 0.0, 0.0, 0.0, 0.0, 0.08600000000000001, 0.03, 0.984, 192.0, 0.0, 0.0, 0.0, 0.0, 0.0, 0.0, 0.0, 0.0, 0.0, 1.7409356976105E9, 0.0, 2025-03-02 19:14:57.610
48.0, 3785.334978739617, 0.0, 0.0, 0.0, 0.0, 0.0, 0.0, 0.0, 0.08600000000000001, 0.03, 0.984, 192.0, 0.0, 0.0, 0.0, 0.0, 0.0, 0.0, 0.0, 0.0, 0.0, 1.740935697610621E9, 0.0, 2025-03-02 19:14:57.610
49.0, 3782.4516037048825, 0.0, 0.0, 0.0, 0.0, 0.0, 0.0, 0.0, 0.08600000000000001, 0.03, 0.984, 192.0, 0.0, 0.0, 0.0, 0.0, 0.0, 0.0, 0.0, 0.0, 0.0, 1.740935697610702E9, 0.0, 2025-03-02 19:14:57.610
50.0, 3788.4195194744493, 0.0, 0.0, 0.0, 0.0, 0.0, 0.0, 0.0, 0.08600000000000001, 0.03, 0.984, 192.0, 0.0, 0.0, 0.0, 0.0, 0.0, 0.0, 0.0, 0.0, 0.0, 1.740935697610799E9, 0.0, 2025-03-02 19:14:57.610
51.0, 3824.8975664255104, 0.0, 0.0, 0.0, 0.0, 0.0, 0.0, 0.0, 0.08600000000000001, 0.03, 0.984, 192.0, 0.0, 0.0, 0.0, 0.0, 0.0, 0.0, 0.0, 0.0, 0.0, 1.740935697610892E9, 0.0, 2025-03-02 19:14:57.610
52.0, 3822.1483018575077, 0.0, 0.0, 0.0, 0.0, 0.0, 0.0, 0.0, 0.08600000000000001, 0.03, 0.984, 192.0, 0.0, 0.0, 0.0, 0.0, 0.0, 0.0, 0.0, 0.0, 0.0, 1.740935697611006E9, 0.0, 2025-03-02 19:14:57.611
53.0, 3782.943342082899, 0.0, 0.0, 0.0, 0.0, 0.0, 0.0, 0.0, 0.08600000000000001, 0.03, 0.984, 192.0, 0.0, 0.0, 0.0, 0.0, 0.0, 0.0, 0.0, 0.0, 0.0, 1.740935697611246E9, 0.0, 2025-03-02 19:14:57.611
54.0, 3779.2776559922286, 0.0, 0.0, 0.0, 0.0, 0.0, 0.0, 0.0, 0.08600000000000001, 0.032, 0.982, 192.0, 2.0, 176.0, 1.0, 0.0, 30.0, 176.0, 0.0, 0.0, 0.0, 1.740935697611342E9, 0.0, 2025-03-02 19:14:57.611
55.0, 3790.766452642257, 0.0, 0.0, 0.0, 0.0, 0.0, 0.0, 0.0, 0.08600000000000001, 0.032, 0.982, 192.0, 0.0, 0.0, 0.0, 0.0, 0.0, 0.0, 0.0, 0.0, 0.0, 1.740935697611403E9, 0.0, 2025-03-02 19:14:57.611
56.0, 3825.590470503625, 0.0, 0.0, 0.0, 0.0, 0.0, 0.0, 0.0, 0.08600000000000001, 0.032, 0.982, 192.0, 0.0, 0.0, 0.0, 0.0, 0.0, 0.0, 0.0, 0.0, 0.0, 1.740935697611569E9, 0.0, 2025-03-02 19:14:57.611
57.0, 3820.8742524235554, 0.0, 0.0, 0.0, 0.0, 0.0, 0.0, 0.0, 0.08600000000000001, 0.032, 0.982, 192.0, 0.0, 0.0, 0.0, 0.0, 0.0, 0.0, 0.0, 0.0, 0.0, 1.740935697611668E9, 0.0, 2025-03-02 19:14:57.611
58.0, 3786.3408072401057, 0.0, 0.0, 0.0, 0.0, 0.0, 0.0, 0.0, 0.08600000000000001, 0.032, 0.982, 192.0, 0.0, 0.0, 0.0, 0.0, 0.0, 0.0, 0.0, 0.0, 0.0, 1.74093569761177E9, 0.0, 2025-03-02 19:14:57.611
59.0, 3779.4788216923266, 0.0, 0.0, 0.0, 0.0, 0.0, 0.0, 0.0, 0.08600000000000001, 0.032, 0.982, 192.0, 0.0, 0.0, 0.0, 0.0, 0.0, 0.0, 0.0, 0.0, 0.0, 1.740935697611821E9, 0.0, 2025-03-02 19:14:57.611
60.0, 3786.0278828177316, 0.0, 0.0, 0.0, 0.0, 0.0, 0.0, 0.0, 0.08600000000000001, 0.032, 0.982, 192.0, 0.0, 0.0, 0.0, 0.0, 0.0, 0.0, 0.0, 0.0, 0.0, 1.740935697669426E9, 0.0, 2025-03-02 19:14:57.669
61.0, 3821.656563479491, 0.0, 0.0, 0.0, 0.0, 0.0, 0.0, 0.0, 0.08600000000000001, 0.032, 0.982, 192.0, 0.0, 0.0, 0.0, 0.0, 0.0, 0.0, 0.0, 0.0, 0.0, 1.740935697669595E9, 0.0, 2025-03-02 19:14:57.669
62.0, 3822.3494675576053, 0.0, 0.0, 0.0, 0.0, 0.0, 0.0, 0.0, 0.08600000000000001, 0.032, 0.982, 192.0, 0.0, 0.0, 0.0, 0.0, 0.0, 0.0, 0.0, 0.0, 0.0, 1.740935697669655E9, 0.0, 2025-03-02 19:14:57.669
63.0, 3786.921952595944, 0.0, 0.0, 0.0, 0.0, 0.0, 0.0, 0.0, 0.08600000000000001, 0.032, 0.982, 192.0, 0.0, 0.0, 0.0, 0.0, 0.0, 0.0, 0.0, 0.0, 0.0, 1.740935697669712E9, 0.0, 2025-03-02 19:14:57.669
64.0, 3779.4117664589608, 0.0, 0.0, 0.0, 0.0, 0.0, 0.0, 0.0, 0.084, 0.03, 0.984, 192.0, 2.0, 160.0, 0.0, 240.0, 30.0, 192.0, 0.0, 0.0, 0.0, 1.740935697669765E9, 0.0, 2025-03-02 19:14:57.669
65.0, 3786.4525659623823, 0.0, 0.0, 0.0, 0.0, 0.0, 0.0, 0.0, 0.084, 0.03, 0.984, 192.0, 0.0, 0.0, 0.0, 0.0, 0.0, 0.0, 0.0, 0.0, 0.0, 1.740935697669822E9, 0.0, 2025-03-02 19:14:57.669
66.0, 3822.66239197998, 0.0, 0.0, 0.0, 0.0, 0.0, 0.0, 0.0, 0.084, 0.03, 0.984, 192.0, 0.0, 0.0, 0.0, 0.0, 0.0, 0.0, 0.0, 0.0, 0.0, 1.740935697669879E9, 0.0, 2025-03-02 19:14:57.669
67.0, 3822.036543135231, 0.0, 0.0, 0.0, 0.0, 0.0, 0.0, 0.0, 0.084, 0.03, 0.984, 192.0, 0.0, 0.0, 0.0, 0.0, 0.0, 0.0, 0.0, 0.0, 0.0, 1.740935697669933E9, 0.0, 2025-03-02 19:14:57.669
68.0, 3781.8034031156785, 0.0, 0.0, 0.0, 0.0, 0.0, 0.0, 0.0, 0.084, 0.03, 0.984, 192.0, 0.0, 0.0, 0.0, 0.0, 0.0, 0.0, 0.0, 0.0, 0.0, 1.740935697669987E9, 0.0, 2025-03-02 19:14:57.669
69.0, 3779.9035048369774, 0.0, 0.0, 0.0, 0.0, 0.0, 0.0, 0.0, 0.084, 0.03, 0.984, 192.0, 0.0, 0.0, 0.0, 0.0, 0.0, 0.0, 0.0, 0.0, 0.0, 1.740935697670044E9, 0.0, 2025-03-02 19:14:57.670
70.0, 3789.045368319198, 0.0, 0.0, 0.0, 0.0, 0.0, 0.0, 0.0, 0.084, 0.03, 0.984, 192.0, 0.0, 0.0, 0.0, 0.0, 0.0, 0.0, 0.0, 0.0, 0.0, 1.7409356976701E9, 0.0, 2025-03-02 19:14:57.670
71.0, 3824.696400725413, 0.0, 0.0, 0.0, 0.0, 0.0, 0.0, 0.0, 0.084, 0.03, 0.984, 192.0, 0.0, 0.0, 0.0, 0.0, 0.0, 0.0, 0.0, 0.0, 0.0, 1.740935697670326E9, 0.0, 2025-03-02 19:14:57.670
72.0, 3822.8859094245327, 0.0, 0.0, 0.0, 0.0, 0.0, 0.0, 0.0, 0.084, 0.03, 0.984, 192.0, 0.0, 0.0, 0.0, 0.0, 0.0, 0.0, 0.0, 0.0, 0.0, 1.740935697670428E9, 0.0, 2025-03-02 19:14:57.670
73.0, 3785.2232200173403, 0.0, 0.0, 0.0, 0.0, 0.0, 0.0, 0.0, 0.084, 0.03, 0.984, 192.0, 0.0, 0.0, 0.0, 0.0, 0.0, 0.0, 0.0, 0.0, 0.0, 1.740935697670568E9, 0.0, 2025-03-02 19:14:57.670
74.0, 3782.65276940498, 0.0, 0.0, 0.0, 0.0, 0.0, 0.0, 0.0, 0.076, 0.026000000000000002, 0.99, 192.0, 2.0, 96.0, 0.0, 208.0, 30.0, 240.0, 0.0, 0.0, 0.0, 1.740935697670904E9, 0.0, 2025-03-02 19:14:57.670
75.0, 3789.5818101861255, 0.0, 0.0, 0.0, 0.0, 0.0, 0.0, 0.0, 0.076, 0.026000000000000002, 0.99, 192.0, 0.0, 0.0, 0.0, 0.0, 0.0, 0.0, 0.0, 0.0, 0.0, 1.740935697729344E9, 0.0, 2025-03-02 19:14:57.729
76.0, 3823.1317786135414, 0.0, 0.0, 0.0, 0.0, 0.0, 0.0, 0.0, 0.076, 0.026000000000000002, 0.99, 192.0, 0.0, 0.0, 0.0, 0.0, 0.0, 0.0, 0.0, 0.0, 0.0, 1.74093569772948E9, 0.0, 2025-03-02 19:14:57.729
77.0, 3821.8577291795887, 0.0, 0.0, 0.0, 0.0, 0.0, 0.0, 0.0, 0.076, 0.026000000000000002, 0.99, 192.0, 0.0, 0.0, 0.0, 0.0, 0.0, 0.0, 0.0, 0.0, 0.0, 1.74093569772961E9, 0.0, 2025-03-02 19:14:57.729
78.0, 3780.5740571706365, 0.0, 0.0, 0.0, 0.0, 0.0, 0.0, 0.0, 0.076, 0.026000000000000002, 0.99, 192.0, 0.0, 0.0, 0.0, 0.0, 0.0, 0.0, 0.0, 0.0, 0.0, 1.740935697729719E9, 0.0, 2025-03-02 19:14:57.729
79.0, 3773.1532780114744, 0.0, 0.0, 0.0, 0.0, 0.0, 0.0, 0.0, 0.076, 0.026000000000000002, 0.99, 192.0, 0.0, 0.0, 0.0, 0.0, 0.0, 0.0, 0.0, 0.0, 0.0, 1.740935697729823E9, 0.0, 2025-03-02 19:14:57.729
80.0, 3786.944304340399, 0.0, 0.0, 0.0, 0.0, 0.0, 0.0, 0.0, 0.076, 0.026000000000000002, 0.99, 192.0, 0.0, 0.0, 0.0, 0.0, 0.0, 0.0, 0.0, 0.0, 0.0, 1.740935697729913E9, 0.0, 2025-03-02 19:14:57.729
81.0, 3821.3212873126613, 0.0, 0.0, 0.0, 0.0, 0.0, 0.0, 0.0, 0.076, 0.026000000000000002, 0.99, 192.0, 0.0, 0.0, 0.0, 0.0, 0.0, 0.0, 0.0, 0.0, 0.0, 1.740935697730002E9, 0.0, 2025-03-02 19:14:57.730
82.0, 3821.0307146347423, 0.0, 0.0, 0.0, 0.0, 0.0, 0.0, 0.0, 0.076, 0.026000000000000002, 0.99, 192.0, 0.0, 0.0, 0.0, 0.0, 0.0, 0.0, 0.0, 0.0, 0.0, 1.740935697730092E9, 0.0, 2025-03-02 19:14:57.730
83.0, 3783.233914760818, 0.0, 0.0, 0.0, 0.0, 0.0, 0.0, 0.0, 0.078, 0.026000000000000002, 0.986, 192.0, 2.0, 112.0, 0.0, 208.0, 30.0, 208.0, 0.0, 0.0, 0.0, 1.740935697730182E9, 0.0, 2025-03-02 19:14:57.730
84.0, 3775.2990454791843, 0.0, 0.0, 0.0, 0.0, 0.0, 0.0, 0.0, 0.078, 0.026000000000000002, 0.986, 192.0, 0.0, 0.0, 0.0, 0.0, 0.0, 0.0, 0.0, 0.0, 0.0, 1.740935697730275E9, 0.0, 2025-03-02 19:14:57.730
85.0, 3784.2844467502177, 0.0, 0.0, 0.0, 0.0, 0.0, 0.0, 0.0, 0.078, 0.026000000000000002, 0.986, 192.0, 0.0, 0.0, 0.0, 0.0, 0.0, 0.0, 0.0, 0.0, 0.0, 1.740935697730364E9, 0.0, 2025-03-02 19:14:57.730
86.0, 3818.9967058893094, 0.0, 0.0, 0.0, 0.0, 0.0, 0.0, 0.0, 0.078, 0.026000000000000002, 0.986, 192.0, 0.0, 0.0, 0.0, 0.0, 0.0, 0.0, 0.0, 0.0, 0.0, 1.740935697730455E9, 0.0, 2025-03-02 19:14:57.730
87.0, 3822.66239197998, 0.0, 0.0, 0.0, 0.0, 0.0, 0.0, 0.0, 0.078, 0.026000000000000002, 0.986, 192.0, 0.0, 0.0, 0.0, 0.0, 0.0, 0.0, 0.0, 0.0, 0.0, 1.740935697730567E9, 0.0, 2025-03-02 19:14:57.730
88.0, 3788.0171880742537, 0.0, 0.0, 0.0, 0.0, 0.0, 0.0, 0.0, 0.078, 0.026000000000000002, 0.986, 192.0, 0.0, 0.0, 0.0, 0.0, 0.0, 0.0, 0.0, 0.0, 0.0, 1.740935697730658E9, 0.0, 2025-03-02 19:14:57.730
89.0, 3779.9705600703433, 0.0, 0.0, 0.0, 0.0, 0.0, 0.0, 0.0, 0.078, 0.026000000000000002, 0.986, 192.0, 0.0, 0.0, 0.0, 0.0, 0.0, 0.0, 0.0, 0.0, 0.0, 1.740935697730841E9, 0.0, 2025-03-02 19:14:57.730
90.0, 3788.151298540986, 0.0, 0.0, 0.0, 0.0, 0.0, 0.0, 0.0, 0.078, 0.026000000000000002, 0.986, 192.0, 0.0, 0.0, 0.0, 0.0, 0.0, 0.0, 0.0, 0.0, 0.0, 1.740935697788246E9, 0.0, 2025-03-02 19:14:57.788
91.0, 3822.32711581315, 0.0, 0.0, 0.0, 0.0, 0.0, 0.0, 0.0, 0.078, 0.026000000000000002, 0.986, 192.0, 0.0, 0.0, 0.0, 0.0, 0.0, 0.0, 0.0, 0.0, 0.0, 1.740935697788399E9, 0.0, 2025-03-02 19:14:57.788
92.0, 3823.3776478025497, 0.0, 0.0, 0.0, 0.0, 0.0, 0.0, 0.0, 0.078, 0.026000000000000002, 0.986, 192.0, 0.0, 0.0, 0.0, 0.0, 0.0, 0.0, 0.0, 0.0, 0.0, 1.74093569778849E9, 0.0, 2025-03-02 19:14:57.788
93.0, 3785.4690892063486, 0.0, 0.0, 0.0, 0.0, 0.0, 0.0, 0.0, 0.078, 0.034, 0.986, 192.0, 2.0, 112.0, 1.0, 16.0, 30.0, 208.0, 0.0, 0.0, 0.0, 1.740935697788612E9, 0.0, 2025-03-02 19:14:57.788
94.0, 3779.791746114701, 0.0, 0.0, 0.0, 0.0, 0.0, 0.0, 0.0, 0.078, 0.034, 0.986, 192.0, 0.0, 0.0, 0.0, 0.0, 0.0, 0.0, 0.0, 0.0, 0.0, 1.740935697788694E9, 0.0, 2025-03-02 19:14:57.788
95.0, 3790.65469391998, 0.0, 0.0, 0.0, 0.0, 0.0, 0.0, 0.0, 0.078, 0.034, 0.986, 192.0, 0.0, 0.0, 0.0, 0.0, 0.0, 0.0, 0.0, 0.0, 0.0, 1.740935697788781E9, 0.0, 2025-03-02 19:14:57.788
96.0, 3825.56811875917, 0.0, 0.0, 0.0, 0.0, 0.0, 0.0, 0.0, 0.078, 0.034, 0.986, 192.0, 0.0, 0.0, 0.0, 0.0, 0.0, 0.0, 0.0, 0.0, 0.0, 1.740935697788882E9, 0.0, 2025-03-02 19:14:57.788
97.0, 3827.4680170378706, 0.0, 0.0, 0.0, 0.0, 0.0, 0.0, 0.0, 0.078, 0.034, 0.986, 192.0, 0.0, 0.0, 0.0, 0.0, 0.0, 0.0, 0.0, 0.0, 0.0, 1.74093569778897E9, 0.0, 2025-03-02 19:14:57.788
98.0, 3789.045368319198, 0.0, 0.0, 0.0, 0.0, 0.0, 0.0, 0.0, 0.078, 0.034, 0.986, 192.0, 0.0, 0.0, 0.0, 0.0, 0.0, 0.0, 0.0, 0.0, 0.0, 1.740935697789063E9, 0.0, 2025-03-02 19:14:57.789
99.0, 3780.5293536817258, 0.0, 0.0, 0.0, 0.0, 0.0, 0.0, 0.0, 0.078, 0.034, 0.986, 192.0, 0.0, 0.0, 0.0, 0.0, 0.0, 0.0, 0.0, 0.0, 0.0, 1.740935697789117E9, 0.0, 2025-03-02 19:14:57.789
100.0, 3788.888906108011, 0.0, 0.0, 0.0, 0.0, 0.0, 0.0, 0.0, 0.078, 0.034, 0.986, 192.0, 0.0, 0.0, 0.0, 0.0, 0.0, 0.0, 0.0, 0.0, 0.0, 1.740935697789168E9, 0.0, 2025-03-02 19:14:57.789
101.0, 3822.3494675576053, 0.0, 0.0, 0.0, 0.0, 0.0, 0.0, 0.0, 0.078, 0.034, 0.986, 192.0, 0.0, 0.0, 0.0, 0.0, 0.0, 0.0, 0.0, 0.0, 0.0, 1.74093569778922E9, 0.0, 2025-03-02 19:14:57.789
102.0, 3823.1541303579966, 0.0, 0.0, 0.0, 0.0, 0.0, 0.0, 0.0, 0.078, 0.034, 0.986, 192.0, 0.0, 0.0, 0.0, 0.0, 0.0, 0.0, 0.0, 0.0, 0.0, 1.740935697789273E9, 0.0, 2025-03-02 19:14:57.789
103.0, 3785.893772351, 0.0, 0.0, 0.0, 0.0, 0.0, 0.0, 0.0, 0.078, 0.03, 0.986, 192.0, 2.0, 112.0, 0.0, 240.0, 30.0, 208.0, 0.0, 0.0, 0.0, 1.740935697789324E9, 0.0, 2025-03-02 19:14:57.789
104.0, 3780.2611327482623, 0.0, 0.0, 0.0, 0.0, 0.0, 0.0, 0.0, 0.078, 0.03, 0.986, 192.0, 0.0, 0.0, 0.0, 0.0, 0.0, 0.0, 0.0, 0.0, 0.0, 1.74093569778938E9, 0.0, 2025-03-02 19:14:57.789
105.0, 3787.816022374156, 0.0, 0.0, 0.0, 0.0, 0.0, 0.0, 0.0, 0.078, 0.03, 0.986, 192.0, 0.0, 0.0, 0.0, 0.0, 0.0, 0.0, 0.0, 0.0, 0.0, 1.740935697848471E9, 0.0, 2025-03-02 19:14:57.848
106.0, 3823.914089669477, 0.0, 0.0, 0.0, 0.0, 0.0, 0.0, 0.0, 0.078, 0.03, 0.986, 192.0, 0.0, 0.0, 0.0, 0.0, 0.0, 0.0, 0.0, 0.0, 0.0, 1.740935697848647E9, 0.0, 2025-03-02 19:14:57.848
107.0, 3825.7469327148124, 0.0, 0.0, 0.0, 0.0, 0.0, 0.0, 0.0, 0.078, 0.03, 0.986, 192.0, 0.0, 0.0, 0.0, 0.0, 0.0, 0.0, 0.0, 0.0, 0.0, 1.740935697848709E9, 0.0, 2025-03-02 19:14:57.848
108.0, 3784.977350828332, 0.0, 0.0, 0.0, 0.0, 0.0, 0.0, 0.0, 0.078, 0.03, 0.986, 192.0, 0.0, 0.0, 0.0, 0.0, 0.0, 0.0, 0.0, 0.0, 0.0, 1.740935697848765E9, 0.0, 2025-03-02 19:14:57.848
109.0, 3775.3437489680946, 0.0, 0.0, 0.0, 0.0, 0.0, 0.0, 0.0, 0.078, 0.03, 0.986, 192.0, 0.0, 0.0, 0.0, 0.0, 0.0, 0.0, 0.0, 0.0, 0.0, 1.740935697848819E9, 0.0, 2025-03-02 19:14:57.848
110.0, 3786.1172897955526, 0.0, 0.0, 0.0, 0.0, 0.0, 0.0, 0.0, 0.078, 0.03, 0.986, 192.0, 0.0, 0.0, 0.0, 0.0, 0.0, 0.0, 0.0, 0.0, 0.0, 1.740935697848872E9, 0.0, 2025-03-02 19:14:57.848
111.0, 3818.750836700301, 0.0, 0.0, 0.0, 0.0, 0.0, 0.0, 0.0, 0.078, 0.03, 0.986, 192.0, 0.0, 0.0, 0.0, 0.0, 0.0, 0.0, 0.0, 0.0, 0.0, 1.740935697848927E9, 0.0, 2025-03-02 19:14:57.848
112.0, 3816.6274209770468, 0.0, 0.0, 0.0, 0.0, 0.0, 0.0, 0.0, 0.078, 0.03, 0.986, 192.0, 0.0, 0.0, 0.0, 0.0, 0.0, 0.0, 0.0, 0.0, 0.0, 1.740935697848983E9, 0.0, 2025-03-02 19:14:57.848
113.0, 3782.3845484715166, 0.0, 0.0, 0.0, 0.0, 0.0, 0.0, 0.0, 0.08, 0.034, 0.992, 192.0, 2.0, 128.0, 1.0, 16.0, 31.0, 0.0, 0.0, 0.0, 0.0, 1.74093569784904E9, 0.0, 2025-03-02 19:14:57.849
114.0, 3776.3495774685834, 0.0, 0.0, 0.0, 0.0, 0.0, 0.0, 0.0, 0.08, 0.034, 0.992, 192.0, 0.0, 0.0, 0.0, 0.0, 0.0, 0.0, 0.0, 0.0, 0.0, 1.740935697849099E9, 0.0, 2025-03-02 19:14:57.849
115.0, 3782.1610310269634, 0.0, 0.0, 0.0, 0.0, 0.0, 0.0, 0.0, 0.08, 0.034, 0.992, 192.0, 0.0, 0.0, 0.0, 0.0, 0.0, 0.0, 0.0, 0.0, 0.0, 1.740935697849155E9, 0.0, 2025-03-02 19:14:57.849
116.0, 3817.0074006327873, 0.0, 0.0, 0.0, 0.0, 0.0, 0.0, 0.0, 0.08, 0.034, 0.992, 192.0, 0.0, 0.0, 0.0, 0.0, 0.0, 0.0, 0.0, 0.0, 0.0, 1.740935697849212E9, 0.0, 2025-03-02 19:14:57.849
117.0, 3819.175519844952, 0.0, 0.0, 0.0, 0.0, 0.0, 0.0, 0.0, 0.08, 0.034, 0.992, 192.0, 0.0, 0.0, 0.0, 0.0, 0.0, 0.0, 0.0, 0.0, 0.0, 1.740935697849268E9, 0.0, 2025-03-02 19:14:57.849
118.0, 3780.976388570832, 0.0, 0.0, 0.0, 0.0, 0.0, 0.0, 0.0, 0.08, 0.034, 0.992, 192.0, 0.0, 0.0, 0.0, 0.0, 0.0, 0.0, 0.0, 0.0, 0.0, 1.740935697849324E9, 0.0, 2025-03-02 19:14:57.849
119.0, 3771.9686355553436, 0.0, 0.0, 0.0, 0.0, 0.0, 0.0, 0.0, 0.08, 0.034, 0.992, 192.0, 0.0, 0.0, 0.0, 0.0, 0.0, 0.0, 0.0, 0.0, 0.0, 1.740935697849381E9, 0.0, 2025-03-02 19:14:57.849
120.0, 3776.7072053798684, 0.0, 0.0, 0.0, 0.0, 0.0, 0.0, 0.0, 0.08, 0.034, 0.992, 192.0, 0.0, 0.0, 0.0, 0.0, 0.0, 0.0, 0.0, 0.0, 0.0, 1.740935697908716E9, 0.0, 2025-03-02 19:14:57.908
121.0, 3812.000609874798, 0.0, 0.0, 0.0, 0.0, 0.0, 0.0, 0.0, 0.08, 0.034, 0.992, 192.0, 0.0, 0.0, 0.0, 0.0, 0.0, 0.0, 0.0, 0.0, 0.0, 1.740935697908807E9, 0.0, 2025-03-02 19:14:57.908
122.0, 3817.6332494775356, 0.0, 0.0, 0.0, 0.0, 0.0, 0.0, 0.0, 0.082, 0.034, 0.988, 192.0, 2.0, 144.0, 1.0, 16.0, 30.0, 224.0, 0.0, 0.0, 0.0, 1.740935697908846E9, 0.0, 2025-03-02 19:14:57.908
